%OpenBCI Raw EEG Data
%
%Sample Rate = 125.0 Hz
%First Column = SampleIndex
%Last Column = Timestamp 
%Other Columns = EEG data in microvolts followed by Accel Data (in G) interleaved with Aux Data
1, -187500.02, -187500.02, -186895.89, -186914.56, -187500.02, -187500.02, -187500.02, -187500.02, -187500.02, -187500.02, -186080.95, -187142.75, -187500.02, -187500.02, -181289.45, -182015.48, 0.000, 0.000, 0.000, 12:02:27.358
2, -187500.02, -187500.02, -186883.44, -186922.48, -187500.02, -187500.02, -187500.02, -187500.02, -187500.02, -187500.02, -186155.64, -187155.22, -187500.02, -187500.02, -181335.41, -181992.91, 0.000, 0.000, 0.000, 12:02:27.362
3, -187500.02, -187500.02, -186956.02, -186909.44, -187500.02, -187500.02, -187500.02, -187500.02, -187500.02, -187500.02, -186135.95, -187151.69, -187500.02, -187500.02, -181299.52, -181994.73, -0.008, 0.708, 0.192, 12:02:27.363
4, -187500.02, -187500.02, -186851.72, -186922.52, -187500.02, -187500.02, -187500.02, -187500.02, -187500.02, -187500.02, -186096.39, -187144.89, -187500.02, -187500.02, -181312.41, -182013.27, 0.000, 0.000, 0.000, 12:02:27.363
5, -187500.02, -187500.02, -186945.45, -186913.69, -187500.02, -187500.02, -187500.02, -187500.02, -187500.02, -187500.02, -186183.05, -187160.00, -187500.02, -187500.02, -181328.75, -181981.13, 0.000, 0.000, 0.000, 12:02:27.364
6, -187500.02, -187500.02, -186896.78, -186915.27, -187500.02, -187500.02, -187500.02, -187500.02, -187500.02, -187500.02, -186087.61, -187146.20, -187500.02, -187500.02, -181292.28, -182016.27, 0.000, 0.000, 0.000, 12:02:27.364
7, -187500.02, -187500.02, -186884.11, -186925.22, -187500.02, -187500.02, -187500.02, -187500.02, -187500.02, -187500.02, -186162.47, -187160.14, -187500.02, -187500.02, -181340.05, -181995.78, 0.000, 0.000, 0.000, 12:02:27.365
8, -187500.02, -187500.02, -186952.73, -186907.16, -187500.02, -187500.02, -187500.02, -187500.02, -187500.02, -187500.02, -186138.66, -187151.13, -187500.02, -187500.02, -181299.47, -181991.81, -0.004, 0.822, 0.226, 12:02:27.419
9, -187500.02, -187500.02, -186852.59, -186922.16, -187500.02, -187500.02, -187500.02, -187500.02, -187500.02, -187500.02, -186103.09, -187150.05, -187500.02, -187500.02, -181316.98, -182016.13, 0.000, 0.000, 0.000, 12:02:27.420
10, -187500.02, -187500.02, -186947.34, -186912.70, -187500.02, -187500.02, -187500.02, -187500.02, -187500.02, -187500.02, -186189.56, -187162.84, -187500.02, -187500.02, -181333.30, -181982.36, 0.000, 0.000, 0.000, 12:02:27.422
11, -187500.02, -187500.02, -186902.95, -186914.33, -187500.02, -187500.02, -187500.02, -187500.02, -187500.02, -187500.02, -186093.23, -187147.28, -187500.02, -187500.02, -181295.59, -182016.27, 0.000, 0.000, 0.000, 12:02:27.424
12, -187500.02, -187500.02, -186891.41, -186924.30, -187500.02, -187500.02, -187500.02, -187500.02, -187500.02, -187500.02, -186169.94, -187163.33, -187500.02, -187500.02, -181346.27, -181998.78, 0.000, 0.000, 0.000, 12:02:27.425
13, -187500.02, -187500.02, -186966.34, -186909.42, -187500.02, -187500.02, -187500.02, -187500.02, -187500.02, -187500.02, -186149.80, -187156.83, -187500.02, -187500.02, -181307.95, -181996.09, -0.004, 0.886, 0.242, 12:02:27.426
14, -187500.02, -187500.02, -186865.77, -186923.20, -187500.02, -187500.02, -187500.02, -187500.02, -187500.02, -187500.02, -186109.58, -187151.59, -187500.02, -187500.02, -181321.38, -182016.89, 0.000, 0.000, 0.000, 12:02:27.427
15, -187500.02, -187500.02, -186957.09, -186910.63, -187500.02, -187500.02, -187500.02, -187500.02, -187500.02, -187500.02, -186195.14, -187162.42, -187500.02, -187500.02, -181336.05, -181980.61, 0.000, 0.000, 0.000, 12:02:27.428
16, -187500.02, -187500.02, -186912.56, -186910.94, -187500.02, -187500.02, -187500.02, -187500.02, -187500.02, -187500.02, -186100.08, -187147.44, -187500.02, -187500.02, -181299.27, -182014.45, 0.000, 0.000, 0.000, 12:02:27.478
17, -187500.02, -187500.02, -186895.98, -186918.09, -187500.02, -187500.02, -187500.02, -187500.02, -187500.02, -187500.02, -186174.36, -187159.80, -187500.02, -187500.02, -181347.75, -181994.53, 0.000, 0.000, 0.000, 12:02:27.479
18, -187500.02, -187500.02, -186972.56, -186903.83, -187500.02, -187500.02, -187500.02, -187500.02, -187500.02, -187500.02, -186158.17, -187155.75, -187500.02, -187500.02, -181312.77, -181994.47, -0.004, 0.916, 0.262, 12:02:27.479
19, -187500.02, -187500.02, -186874.22, -186920.19, -187500.02, -187500.02, -187500.02, -187500.02, -187500.02, -187500.02, -186118.44, -187152.16, -187500.02, -187500.02, -181326.78, -182016.86, 0.000, 0.000, 0.000, 12:02:27.480
20, -187500.02, -187500.02, -186964.42, -186907.47, -187500.02, -187500.02, -187500.02, -187500.02, -187500.02, -187500.02, -186205.14, -187164.22, -187500.02, -187500.02, -181343.09, -181981.66, 0.000, 0.000, 0.000, 12:02:27.480
21, -187500.02, -187500.02, -186924.23, -186911.03, -187500.02, -187500.02, -187500.02, -187500.02, -187500.02, -187500.02, -186113.66, -187153.63, -187500.02, -187500.02, -181308.73, -182019.59, 0.000, 0.000, 0.000, 12:02:27.481
22, -187500.02, -187500.02, -186909.73, -186922.16, -187500.02, -187500.02, -187500.02, -187500.02, -187500.02, -187500.02, -186186.03, -187166.95, -187500.02, -187500.02, -181356.64, -182000.19, 0.000, 0.000, 0.000, 12:02:27.481
23, -187500.02, -187500.02, -186983.84, -186905.50, -187500.02, -187500.02, -187500.02, -187500.02, -187500.02, -187500.02, -186168.75, -187161.75, -187500.02, -187500.02, -181319.27, -181997.52, -0.002, 0.924, 0.266, 12:02:27.562
24, -187500.02, -187500.02, -186882.92, -186921.38, -187500.02, -187500.02, -187500.02, -187500.02, -187500.02, -187500.02, -186128.33, -187159.64, -187500.02, -187500.02, -181333.34, -182021.95, 0.000, 0.000, 0.000, 12:02:27.565
25, -187500.02, -187500.02, -186973.98, -186911.94, -187500.02, -187500.02, -187500.02, -187500.02, -187500.02, -187500.02, -186215.11, -187172.19, -187500.02, -187500.02, -181349.39, -181986.67, 0.000, 0.000, 0.000, 12:02:27.568
26, -187500.02, -187500.02, -186931.25, -186914.05, -187500.02, -187500.02, -187500.02, -187500.02, -187500.02, -187500.02, -186120.89, -187160.97, -187500.02, -187500.02, -181311.84, -182022.92, 0.000, 0.000, 0.000, 12:02:27.580
27, -187500.02, -187500.02, -186913.70, -186925.64, -187500.02, -187500.02, -187500.02, -187500.02, -187500.02, -187500.02, -186191.03, -187174.47, -187500.02, -187500.02, -181357.80, -182003.86, 0.000, 0.000, 0.000, 12:02:27.583
28, -187500.02, -187500.02, -186989.28, -186912.02, -187500.02, -187500.02, -187500.02, -187500.02, -187500.02, -187500.02, -186177.03, -187175.06, -187500.02, -187500.02, -181322.78, -182004.75, -0.002, 0.934, 0.270, 12:02:27.587
29, -187500.02, -187500.02, -186889.72, -186932.77, -187500.02, -187500.02, -187500.02, -187500.02, -187500.02, -187500.02, -186132.58, -187172.77, -187500.02, -187500.02, -181333.17, -182027.86, 0.000, 0.000, 0.000, 12:02:27.607
30, -187500.02, -187500.02, -186976.66, -186923.66, -187500.02, -187500.02, -187500.02, -187500.02, -187500.02, -187500.02, -186219.78, -187188.25, -187500.02, -187500.02, -181349.17, -181994.64, 0.000, 0.000, 0.000, 12:02:27.611
31, -187500.02, -187500.02, -186935.48, -186929.06, -187500.02, -187500.02, -187500.02, -187500.02, -187500.02, -187500.02, -186124.42, -187179.67, -187500.02, -187500.02, -181309.23, -182031.48, 0.000, 0.000, 0.000, 12:02:27.614
32, -187500.02, -187500.02, -186918.72, -186947.08, -187500.02, -187500.02, -187500.02, -187500.02, -187500.02, -187500.02, -186197.13, -187199.91, -187500.02, -187500.02, -181357.80, -182017.05, 0.000, 0.000, 0.000, 12:02:27.617
33, -187500.02, -187500.02, -186994.89, -186936.02, -187500.02, -187500.02, -187500.02, -187500.02, -187500.02, -187500.02, -186183.09, -187201.00, -187500.02, -187500.02, -181321.23, -182016.03, -0.002, 0.940, 0.264, 12:02:27.621
34, -187500.02, -187500.02, -186894.39, -186957.83, -187500.02, -187500.02, -187500.02, -187500.02, -187500.02, -187500.02, -186137.16, -187198.84, -187500.02, -187500.02, -181329.34, -182039.31, 0.000, 0.000, 0.000, 12:02:27.623
35, -187500.02, -187500.02, -186982.19, -186949.66, -187500.02, -187500.02, -187500.02, -187500.02, -187500.02, -187500.02, -186226.59, -187216.75, -187500.02, -187500.02, -181347.00, -182006.22, 0.000, 0.000, 0.000, 12:02:27.625
36, -187500.02, -187500.02, -186946.83, -186959.34, -187500.02, -187500.02, -187500.02, -187500.02, -187500.02, -187500.02, -186137.98, -187214.97, -187500.02, -187500.02, -181312.47, -182048.17, 0.000, 0.000, 0.000, 12:02:27.631
37, -187500.02, -187500.02, -186931.16, -186978.19, -187500.02, -187500.02, -187500.02, -187500.02, -187500.02, -187500.02, -186207.33, -187231.14, -187500.02, -187500.02, -181358.20, -182030.08, 0.000, 0.000, 0.000, 12:02:27.634
38, -187500.02, -187500.02, -187009.69, -186965.77, -187500.02, -187500.02, -187500.02, -187500.02, -187500.02, -187500.02, -186198.61, -187236.02, -187500.02, -187500.02, -181325.22, -182031.77, -0.004, 0.948, 0.252, 12:02:27.668
39, -187500.02, -187500.02, -186915.86, -186992.75, -187500.02, -187500.02, -187500.02, -187500.02, -187500.02, -187500.02, -186157.92, -187239.86, -187500.02, -187500.02, -181339.14, -182060.61, 0.000, 0.000, 0.000, 12:02:27.671
40, -187500.02, -187500.02, -187008.09, -186987.31, -187500.02, -187500.02, -187500.02, -187500.02, -187500.02, -187500.02, -186248.36, -187256.67, -187500.02, -187500.02, -181357.47, -182026.08, 0.000, 0.000, 0.000, 12:02:27.672
41, -187500.02, -187500.02, -186970.92, -186991.95, -187500.02, -187500.02, -187500.02, -187500.02, -187500.02, -187500.02, -186156.66, -187250.66, -187500.02, -187500.02, -181319.27, -182063.67, 0.000, 0.000, 0.000, 12:02:27.673
42, -187500.02, -187500.02, -186952.02, -187007.86, -187500.02, -187500.02, -187500.02, -187500.02, -187500.02, -187500.02, -186225.77, -187265.13, -187500.02, -187500.02, -181365.58, -182044.61, -0.002, 0.942, 0.256, 12:02:27.674
43, -187500.02, -187500.02, -187033.64, -186996.45, -187500.02, -187500.02, -187500.02, -187500.02, -187500.02, -187500.02, -186219.02, -187270.39, -187500.02, -187500.02, -181333.81, -182047.16, 0.000, 0.000, 0.000, 12:02:27.674
44, -187500.02, -187500.02, -186938.56, -187022.38, -187500.02, -187500.02, -187500.02, -187500.02, -187500.02, -187500.02, -186176.95, -187274.33, -187500.02, -187500.02, -181346.88, -182075.88, 0.000, 0.000, 0.000, 12:02:27.675
45, -187500.02, -187500.02, -187028.78, -187016.23, -187500.02, -187500.02, -187500.02, -187500.02, -187500.02, -187500.02, -186266.69, -187290.31, -187500.02, -187500.02, -181364.69, -182040.20, 0.000, 0.000, 0.000, 12:02:27.675
46, -187500.02, -187500.02, -186994.36, -187023.80, -187500.02, -187500.02, -187500.02, -187500.02, -187500.02, -187500.02, -186175.89, -187286.06, -187500.02, -187500.02, -181326.55, -182078.94, 0.000, 0.000, 0.000, 12:02:27.717
47, -187500.02, -187500.02, -186974.27, -187040.27, -187500.02, -187500.02, -187500.02, -187500.02, -187500.02, -187500.02, -186245.86, -187302.58, -187500.02, -187500.02, -181374.67, -182062.19, 0.002, 0.944, 0.258, 12:02:27.717
48, -187500.02, -187500.02, -187055.84, -187027.03, -187500.02, -187500.02, -187500.02, -187500.02, -187500.02, -187500.02, -186237.25, -187305.36, -187500.02, -187500.02, -181340.25, -182060.25, 0.000, 0.000, 0.000, 12:02:27.718
49, -187500.02, -187500.02, -186958.09, -187050.70, -187500.02, -187500.02, -187500.02, -187500.02, -187500.02, -187500.02, -186193.05, -187306.97, -187500.02, -187500.02, -181351.92, -182087.92, 0.000, 0.000, 0.000, 12:02:27.718
50, -187500.02, -187500.02, -187047.95, -187042.81, -187500.02, -187500.02, -187500.02, -187500.02, -187500.02, -187500.02, -186284.86, -187322.13, -187500.02, -187500.02, -181372.08, -182052.30, 0.000, 0.000, 0.000, 12:02:27.719
51, -187500.02, -187500.02, -187014.95, -187048.58, -187500.02, -187500.02, -187500.02, -187500.02, -187500.02, -187500.02, -186192.53, -187315.09, -187500.02, -187500.02, -181332.55, -182088.91, 0.000, 0.000, 0.000, 12:02:27.720
52, -187500.02, -187500.02, -186991.78, -187061.14, -187500.02, -187500.02, -187500.02, -187500.02, -187500.02, -187500.02, -186260.41, -187327.06, -187500.02, -187500.02, -181380.00, -182069.92, 0.002, 0.940, 0.260, 12:02:27.721
53, -187500.02, -187500.02, -187074.91, -187045.22, -187500.02, -187500.02, -187500.02, -187500.02, -187500.02, -187500.02, -186254.84, -187329.11, -187500.02, -187500.02, -181348.41, -182068.47, 0.000, 0.000, 0.000, 12:02:27.778
54, -187500.02, -187500.02, -186980.58, -187070.23, -187500.02, -187500.02, -187500.02, -187500.02, -187500.02, -187500.02, -186213.45, -187331.58, -187500.02, -187500.02, -181363.92, -182098.73, 0.000, 0.000, 0.000, 12:02:27.778
55, -187500.02, -187500.02, -187068.22, -187057.20, -187500.02, -187500.02, -187500.02, -187500.02, -187500.02, -187500.02, -186302.16, -187338.34, -187500.02, -187500.02, -181382.05, -182057.23, 0.000, 0.000, 0.000, 12:02:27.779
56, -187500.02, -187500.02, -187035.66, -187059.08, -187500.02, -187500.02, -187500.02, -187500.02, -187500.02, -187500.02, -186211.59, -187329.81, -187500.02, -187500.02, -181344.02, -182094.78, 0.000, 0.000, 0.000, 12:02:27.779
57, -187500.02, -187500.02, -187012.25, -187069.81, -187500.02, -187500.02, -187500.02, -187500.02, -187500.02, -187500.02, -186279.36, -187337.97, -187500.02, -187500.02, -181392.77, -182074.58, 0.000, 0.940, 0.260, 12:02:27.780
58, -187500.02, -187500.02, -187095.45, -187049.05, -187500.02, -187500.02, -187500.02, -187500.02, -187500.02, -187500.02, -186275.78, -187337.42, -187500.02, -187500.02, -181362.89, -182072.16, 0.000, 0.000, 0.000, 12:02:27.781
59, -187500.02, -187500.02, -186997.48, -187067.95, -187500.02, -187500.02, -187500.02, -187500.02, -187500.02, -187500.02, -186227.23, -187329.16, -187500.02, -187500.02, -181372.16, -182094.77, 0.000, 0.000, 0.000, 12:02:27.781
60, -187500.02, -187500.02, -187079.95, -187044.67, -187500.02, -187500.02, -187500.02, -187500.02, -187500.02, -187500.02, -186315.81, -187330.50, -187500.02, -187500.02, -181390.86, -182050.03, 0.000, 0.000, 0.000, 12:02:27.782
61, -187500.02, -187500.02, -187044.55, -187037.61, -187500.02, -187500.02, -187500.02, -187500.02, -187500.02, -187500.02, -186222.50, -187314.19, -187500.02, -187500.02, -181350.47, -182081.50, 0.000, 0.000, 0.000, 12:02:27.838
62, -187500.02, -187500.02, -187018.66, -187040.63, -187500.02, -187500.02, -187500.02, -187500.02, -187500.02, -187500.02, -186288.70, -187312.78, -187500.02, -187500.02, -181399.52, -182056.41, -0.002, 0.942, 0.258, 12:02:27.839
63, -187500.02, -187500.02, -187098.20, -187005.80, -187500.02, -187500.02, -187500.02, -187500.02, -187500.02, -187500.02, -186282.97, -187299.92, -187500.02, -187500.02, -181367.88, -182045.45, 0.000, 0.000, 0.000, 12:02:27.839
64, -187500.02, -187500.02, -186999.38, -187014.09, -187500.02, -187500.02, -187500.02, -187500.02, -187500.02, -187500.02, -186235.98, -187281.69, -187500.02, -187500.02, -181380.36, -182063.84, 0.000, 0.000, 0.000, 12:02:27.840
65, -187500.02, -187500.02, -187081.23, -186975.83, -187500.02, -187500.02, -187500.02, -187500.02, -187500.02, -187500.02, -186324.09, -187269.38, -187500.02, -187500.02, -181400.41, -182011.75, 0.000, 0.000, 0.000, 12:02:27.840
66, -187500.02, -187500.02, -187042.83, -186960.27, -187500.02, -187500.02, -187500.02, -187500.02, -187500.02, -187500.02, -186226.97, -187251.63, -187500.02, -187500.02, -181357.63, -182044.61, 0.000, 0.000, 0.000, 12:02:27.841
67, -187500.02, -187500.02, -187012.48, -186968.84, -187500.02, -187500.02, -187500.02, -187500.02, -187500.02, -187500.02, -186286.47, -187249.39, -187500.02, -187500.02, -181401.66, -182020.22, -0.002, 0.942, 0.254, 12:02:27.841
68, -187500.02, -187500.02, -187083.63, -186932.39, -187500.02, -187500.02, -187500.02, -187500.02, -187500.02, -187500.02, -186275.00, -187234.98, -187500.02, -187500.02, -181364.63, -182007.34, 0.000, 0.000, 0.000, 12:02:27.900
69, -187500.02, -187500.02, -186982.34, -186946.47, -187500.02, -187500.02, -187500.02, -187500.02, -187500.02, -187500.02, -186223.48, -187220.94, -187500.02, -187500.02, -181373.78, -182028.95, 0.000, 0.000, 0.000, 12:02:27.905
70, -187500.02, -187500.02, -187062.08, -186913.06, -187500.02, -187500.02, -187500.02, -187500.02, -187500.02, -187500.02, -186311.03, -187212.28, -187500.02, -187500.02, -181394.23, -181979.27, 0.000, 0.000, 0.000, 12:02:27.908
71, -187500.02, -187500.02, -187027.36, -186897.75, -187500.02, -187500.02, -187500.02, -187500.02, -187500.02, -187500.02, -186221.70, -187178.73, -187500.02, -187500.02, -181359.61, -182000.80, 0.000, 0.000, 0.000, 12:02:27.916
72, -187500.02, -187500.02, -187006.33, -186841.91, -187500.02, -187500.02, -187500.02, -187500.02, -187500.02, -187500.02, -186295.39, -187109.39, -187500.02, -187500.02, -181425.44, -181932.48, 0.002, 0.940, 0.268, 12:02:27.919
73, -187500.02, -187500.02, -187087.64, -186751.59, -187500.02, -187500.02, -187500.02, -187500.02, -187500.02, -187500.02, -186283.70, -187079.78, -187500.02, -187500.02, -181393.08, -181916.69, 0.000, 0.000, 0.000, 12:02:27.931
74, -187500.02, -187500.02, -186975.64, -186773.66, -187500.02, -187500.02, -187500.02, -187500.02, -187500.02, -187500.02, -186220.77, -187073.36, -187500.02, -187500.02, -181392.98, -181946.64, 0.000, 0.000, 0.000, 12:02:27.934
75, -187500.02, -187500.02, -187044.63, -186750.73, -187500.02, -187500.02, -187500.02, -187500.02, -187500.02, -187500.02, -186303.03, -187076.20, -187500.02, -187500.02, -181407.63, -181905.63, 0.000, 0.000, 0.000, 12:02:27.937
76, -187500.02, -187500.02, -187006.00, -186763.80, -187500.02, -187500.02, -187500.02, -187500.02, -187500.02, -187500.02, -186203.25, -187080.61, -187500.02, -187500.02, -181359.70, -181954.95, 0.000, 0.000, 0.000, 12:02:27.962
77, -187500.02, -187500.02, -186964.02, -186784.89, -187500.02, -187500.02, -187500.02, -187500.02, -187500.02, -187500.02, -186256.88, -187081.61, -187500.02, -187500.02, -181398.13, -181933.31, -0.002, 0.942, 0.264, 12:02:27.967
78, -187500.02, -187500.02, -187040.59, -186762.72, -187500.02, -187500.02, -187500.02, -187500.02, -187500.02, -187500.02, -186248.36, -187087.27, -187500.02, -187500.02, -181360.03, -181933.83, 0.000, 0.000, 0.000, 12:02:27.971
79, -187500.02, -187500.02, -186935.03, -186800.05, -187500.02, -187500.02, -187500.02, -187500.02, -187500.02, -187500.02, -186191.36, -187088.47, -187500.02, -187500.02, -181361.69, -181965.28, 0.000, 0.000, 0.000, 12:02:27.974
80, -187500.02, -187500.02, -187013.17, -186780.56, -187500.02, -187500.02, -187500.02, -187500.02, -187500.02, -187500.02, -186279.88, -187090.94, -187500.02, -187500.02, -181381.94, -181923.25, 0.000, 0.000, 0.000, 12:02:27.977
81, -187500.02, -187500.02, -186977.77, -186785.77, -187500.02, -187500.02, -187500.02, -187500.02, -187500.02, -187500.02, -186182.98, -187090.47, -187500.02, -187500.02, -181335.81, -181966.53, 0.000, 0.000, 0.000, 12:02:27.981
82, -187500.02, -187500.02, -186945.02, -186807.56, -187500.02, -187500.02, -187500.02, -187500.02, -187500.02, -187500.02, -186242.47, -187095.22, -187500.02, -187500.02, -181381.25, -181946.33, -0.004, 0.942, 0.264, 12:02:27.984
83, -187500.02, -187500.02, -187024.06, -186780.20, -187500.02, -187500.02, -187500.02, -187500.02, -187500.02, -187500.02, -186237.83, -187101.95, -187500.02, -187500.02, -181346.45, -181944.83, 0.000, 0.000, 0.000, 12:02:28.017
84, -187500.02, -187500.02, -186919.67, -186816.05, -187500.02, -187500.02, -187500.02, -187500.02, -187500.02, -187500.02, -186179.72, -187099.11, -187500.02, -187500.02, -181347.39, -181972.86, 0.000, 0.000, 0.000, 12:02:28.018
85, -187500.02, -187500.02, -186995.45, -186791.17, -187500.02, -187500.02, -187500.02, -187500.02, -187500.02, -187500.02, -186273.64, -187099.89, -187500.02, -187500.02, -181372.20, -181929.17, 0.000, 0.000, 0.000, 12:02:28.018
86, -187500.02, -187500.02, -186967.98, -186793.86, -187500.02, -187500.02, -187500.02, -187500.02, -187500.02, -187500.02, -186178.88, -187095.09, -187500.02, -187500.02, -181326.69, -181966.34, -0.002, 0.946, 0.260, 12:02:28.019
87, -187500.02, -187500.02, -186933.56, -186803.92, -187500.02, -187500.02, -187500.02, -187500.02, -187500.02, -187500.02, -186240.98, -187093.45, -187500.02, -187500.02, -181376.16, -181942.61, 0.000, 0.000, 0.000, 12:02:28.020
88, -187500.02, -187500.02, -187017.11, -186768.17, -187500.02, -187500.02, -187500.02, -187500.02, -187500.02, -187500.02, -186235.75, -187087.47, -187500.02, -187500.02, -181340.80, -181932.70, 0.000, 0.000, 0.000, 12:02:28.020
89, -187500.02, -187500.02, -186915.05, -186795.72, -187500.02, -187500.02, -187500.02, -187500.02, -187500.02, -187500.02, -186182.56, -187084.83, -187500.02, -187500.02, -181347.88, -181963.91, 0.000, 0.000, 0.000, 12:02:28.021
90, -187500.02, -187500.02, -186995.81, -186772.80, -187500.02, -187500.02, -187500.02, -187500.02, -187500.02, -187500.02, -186272.97, -187082.98, -187500.02, -187500.02, -181369.63, -181917.09, 0.000, 0.000, 0.000, 12:02:28.021
91, -187500.02, -187500.02, -186961.77, -186769.41, -187500.02, -187500.02, -187500.02, -187500.02, -187500.02, -187500.02, -186176.72, -187078.13, -187500.02, -187500.02, -181321.80, -181954.53, 0.000, 0.942, 0.260, 12:02:28.079
92, -187500.02, -187500.02, -186927.00, -186785.39, -187500.02, -187500.02, -187500.02, -187500.02, -187500.02, -187500.02, -186237.83, -187076.09, -187500.02, -187500.02, -181370.67, -181932.27, 0.000, 0.000, 0.000, 12:02:28.080
93, -187500.02, -187500.02, -187008.72, -186750.98, -187500.02, -187500.02, -187500.02, -187500.02, -187500.02, -187500.02, -186231.47, -187070.97, -187500.02, -187500.02, -181333.38, -181920.69, 0.000, 0.000, 0.000, 12:02:28.080
94, -187500.02, -187500.02, -186901.84, -186779.69, -187500.02, -187500.02, -187500.02, -187500.02, -187500.02, -187500.02, -186178.42, -187074.39, -187500.02, -187500.02, -181340.52, -181955.55, 0.000, 0.000, 0.000, 12:02:28.081
95, -187500.02, -187500.02, -186984.56, -186762.09, -187500.02, -187500.02, -187500.02, -187500.02, -187500.02, -187500.02, -186271.47, -187077.19, -187500.02, -187500.02, -181365.06, -181912.44, 0.000, 0.000, 0.000, 12:02:28.081
96, -187500.02, -187500.02, -186956.56, -186767.64, -187500.02, -187500.02, -187500.02, -187500.02, -187500.02, -187500.02, -186176.17, -187078.53, -187500.02, -187500.02, -181317.39, -181954.45, -0.002, 0.944, 0.262, 12:02:28.082
97, -187500.02, -187500.02, -186914.28, -186782.55, -187500.02, -187500.02, -187500.02, -187500.02, -187500.02, -187500.02, -186228.11, -187072.41, -187500.02, -187500.02, -181358.00, -181926.77, 0.000, 0.000, 0.000, 12:02:28.082
98, -187500.02, -187500.02, -186996.55, -186748.33, -187500.02, -187500.02, -187500.02, -187500.02, -187500.02, -187500.02, -186227.47, -187073.86, -187500.02, -187500.02, -181325.30, -181920.94, 0.000, 0.000, 0.000, 12:02:28.144
99, -187500.02, -187500.02, -186894.03, -186781.86, -187500.02, -187500.02, -187500.02, -187500.02, -187500.02, -187500.02, -186170.67, -187072.72, -187500.02, -187500.02, -181328.94, -181952.00, 0.000, 0.000, 0.000, 12:02:28.148
100, -187500.02, -187500.02, -186973.94, -186757.77, -187500.02, -187500.02, -187500.02, -187500.02, -187500.02, -187500.02, -186266.47, -187070.23, -187500.02, -187500.02, -181356.77, -181905.73, 0.000, 0.000, 0.000, 12:02:28.153
101, -187500.02, -187500.02, -186947.30, -186754.78, -187500.02, -187500.02, -187500.02, -187500.02, -187500.02, -187500.02, -186173.06, -187065.36, -187500.02, -187500.02, -181310.89, -181943.17, 0.002, 0.948, 0.264, 12:02:28.157
102, -187500.02, -187500.02, -186908.59, -186763.44, -187500.02, -187500.02, -187500.02, -187500.02, -187500.02, -187500.02, -186232.81, -187055.94, -187500.02, -187500.02, -181360.50, -181916.48, 0.000, 0.000, 0.000, 12:02:28.160
103, -187500.02, -187500.02, -186995.11, -186721.03, -187500.02, -187500.02, -187500.02, -187500.02, -187500.02, -187500.02, -186233.83, -187048.63, -187500.02, -187500.02, -181329.80, -181905.69, 0.000, 0.000, 0.000, 12:02:28.176
104, -187500.02, -187500.02, -186890.73, -186745.31, -187500.02, -187500.02, -187500.02, -187500.02, -187500.02, -187500.02, -186175.00, -187038.25, -187500.02, -187500.02, -181333.28, -181931.80, 0.000, 0.000, 0.000, 12:02:28.180
105, -187500.02, -187500.02, -186966.59, -186706.03, -187500.02, -187500.02, -187500.02, -187500.02, -187500.02, -187500.02, -186266.48, -187019.67, -187500.02, -187500.02, -181358.56, -181873.91, 0.000, 0.000, 0.000, 12:02:28.209
106, -187500.02, -187500.02, -186936.97, -186687.59, -187500.02, -187500.02, -187500.02, -187500.02, -187500.02, -187500.02, -186170.94, -187003.25, -187500.02, -187500.02, -181311.91, -181904.17, 0.000, 0.944, 0.264, 12:02:28.229
107, -187500.02, -187500.02, -186895.25, -186684.58, -187500.02, -187500.02, -187500.02, -187500.02, -187500.02, -187500.02, -186228.36, -186979.27, -187500.02, -187500.02, -181362.20, -181870.08, 0.000, 0.000, 0.000, 12:02:28.234
108, -187500.02, -187500.02, -186982.14, -186624.56, -187500.02, -187500.02, -187500.02, -187500.02, -187500.02, -187500.02, -186231.95, -186957.16, -187500.02, -187500.02, -181335.98, -181850.61, 0.000, 0.000, 0.000, 12:02:28.240
109, -187500.02, -187500.02, -186877.72, -186628.05, -187500.02, -187500.02, -187500.02, -187500.02, -187500.02, -187500.02, -186169.86, -186921.11, -187500.02, -187500.02, -181339.50, -181860.73, 0.000, 0.000, 0.000, 12:02:28.241
110, -187500.02, -187500.02, -186948.73, -186555.94, -187500.02, -187500.02, -187500.02, -187500.02, -187500.02, -187500.02, -186263.05, -186879.16, -187500.02, -187500.02, -181370.66, -181791.06, 0.000, 0.000, 0.000, 12:02:28.241
111, -187500.02, -187500.02, -186922.88, -186526.39, -187500.02, -187500.02, -187500.02, -187500.02, -187500.02, -187500.02, -186167.63, -186858.67, -187500.02, -187500.02, -181326.73, -181824.19, -0.002, 0.936, 0.256, 12:02:28.249
112, -187500.02, -187500.02, -186876.63, -186522.47, -187500.02, -187500.02, -187500.02, -187500.02, -187500.02, -187500.02, -186220.77, -186832.14, -187500.02, -187500.02, -181375.30, -181790.36, 0.000, 0.000, 0.000, 12:02:28.250
113, -187500.02, -187500.02, -186960.52, -186466.09, -187500.02, -187500.02, -187500.02, -187500.02, -187500.02, -187500.02, -186222.84, -186820.81, -187500.02, -187500.02, -181347.20, -181779.83, 0.000, 0.000, 0.000, 12:02:28.258
114, -187500.02, -187500.02, -186852.73, -186495.81, -187500.02, -187500.02, -187500.02, -187500.02, -187500.02, -187500.02, -186155.61, -186814.28, -187500.02, -187500.02, -181343.56, -181811.25, 0.000, 0.000, 0.000, 12:02:28.259
115, -187500.02, -187500.02, -186918.13, -186465.02, -187500.02, -187500.02, -187500.02, -187500.02, -187500.02, -187500.02, -186241.08, -186805.03, -187500.02, -187500.02, -181362.34, -181759.59, 0.000, 0.000, 0.000, 12:02:28.260
116, -187500.02, -187500.02, -186884.14, -186467.16, -187500.02, -187500.02, -187500.02, -187500.02, -187500.02, -187500.02, -186139.94, -186808.97, -187500.02, -187500.02, -181307.28, -181804.56, -0.004, 0.934, 0.240, 12:02:28.260
117, -187500.02, -187500.02, -186836.19, -186490.80, -187500.02, -187500.02, -187500.02, -187500.02, -187500.02, -187500.02, -186193.63, -186802.81, -187500.02, -187500.02, -181353.00, -181780.77, 0.000, 0.000, 0.000, 12:02:28.261
118, -187500.02, -187500.02, -186921.27, -186447.11, -187500.02, -187500.02, -187500.02, -187500.02, -187500.02, -187500.02, -186194.42, -186796.88, -187500.02, -187500.02, -181320.14, -181768.16, 0.000, 0.000, 0.000, 12:02:28.262
119, -187500.02, -187500.02, -186809.09, -186475.20, -187500.02, -187500.02, -187500.02, -187500.02, -187500.02, -187500.02, -186126.19, -186790.38, -187500.02, -187500.02, -181315.13, -181796.47, 0.000, 0.000, 0.000, 12:02:28.262
120, -187500.02, -187500.02, -186881.83, -186446.31, -187500.02, -187500.02, -187500.02, -187500.02, -187500.02, -187500.02, -186222.39, -186785.03, -187500.02, -187500.02, -181343.78, -181748.80, 0.000, 0.000, 0.000, 12:02:28.262
121, -187500.02, -187500.02, -186859.95, -186449.03, -187500.02, -187500.02, -187500.02, -187500.02, -187500.02, -187500.02, -186127.97, -186789.45, -187500.02, -187500.02, -181295.11, -181794.69, -0.008, 0.938, 0.248, 12:02:28.323
122, -187500.02, -187500.02, -186811.92, -186467.44, -187500.02, -187500.02, -187500.02, -187500.02, -187500.02, -187500.02, -186176.13, -186777.78, -187500.02, -187500.02, -181335.56, -181765.91, 0.000, 0.000, 0.000, 12:02:28.324
123, -187500.02, -187500.02, -186896.27, -186425.23, -187500.02, -187500.02, -187500.02, -187500.02, -187500.02, -187500.02, -186177.38, -186776.67, -187500.02, -187500.02, -181302.30, -181758.09, 0.000, 0.000, 0.000, 12:02:28.324
124, -187500.02, -187500.02, -186789.77, -186467.48, -187500.02, -187500.02, -187500.02, -187500.02, -187500.02, -187500.02, -186110.11, -186780.56, -187500.02, -187500.02, -181297.81, -181796.08, 0.000, 0.000, 0.000, 12:02:28.325
125, -187500.02, -187500.02, -186859.73, -186449.59, -187500.02, -187500.02, -187500.02, -187500.02, -187500.02, -187500.02, -186201.53, -186785.86, -187500.02, -187500.02, -181321.80, -181752.73, -0.004, 0.946, 0.258, 12:02:28.325
126, -187500.02, -187500.02, -186835.47, -186469.09, -187500.02, -187500.02, -187500.02, -187500.02, -187500.02, -187500.02, -186102.94, -186810.20, -187500.02, -187500.02, -181267.95, -181809.70, 0.000, 0.000, 0.000, 12:02:28.326
127, -187500.02, -187500.02, -186782.56, -186512.72, -187500.02, -187500.02, -187500.02, -187500.02, -187500.02, -187500.02, -186147.36, -186823.08, -187500.02, -187500.02, -181304.42, -181796.08, 0.000, 0.000, 0.000, 12:02:28.326
0, -187500.02, -187500.02, -186866.98, -186499.63, -187500.02, -187500.02, -187500.02, -187500.02, -187500.02, -187500.02, -186150.81, -186848.91, -187500.02, -187500.02, -181271.13, -181804.97, 0.000, 0.000, 0.000, 12:02:28.394
1, -187500.02, -187500.02, -186764.13, -186571.72, -187500.02, -187500.02, -187500.02, -187500.02, -187500.02, -187500.02, -186085.59, -186879.55, -187500.02, -187500.02, -181267.03, -181858.88, 0.000, 0.000, 0.000, 12:02:28.422
2, -187500.02, -187500.02, -186841.42, -186579.86, -187500.02, -187500.02, -187500.02, -187500.02, -187500.02, -187500.02, -186184.06, -186903.97, -187500.02, -187500.02, -181296.13, -181826.89, -0.004, 0.944, 0.256, 12:02:28.434
3, -187500.02, -187500.02, -186825.33, -186609.80, -187500.02, -187500.02, -187500.02, -187500.02, -187500.02, -187500.02, -186088.72, -186931.91, -187500.02, -187500.02, -181243.47, -181884.56, 0.000, 0.000, 0.000, 12:02:28.469
4, -187500.02, -187500.02, -186776.02, -186653.41, -187500.02, -187500.02, -187500.02, -187500.02, -187500.02, -187500.02, -186140.27, -186946.50, -187500.02, -187500.02, -181286.77, -181872.55, 0.000, 0.000, 0.000, 12:02:28.472
5, -187500.02, -187500.02, -186876.33, -186640.88, -187500.02, -187500.02, -187500.02, -187500.02, -187500.02, -187500.02, -186153.22, -186971.00, -187500.02, -187500.02, -181260.59, -181878.16, 0.000, 0.000, 0.000, 12:02:28.477
6, -187500.02, -187500.02, -186780.09, -186702.38, -187500.02, -187500.02, -187500.02, -187500.02, -187500.02, -187500.02, -186091.19, -186995.41, -187500.02, -187500.02, -181259.77, -181927.92, 0.000, 0.000, 0.000, 12:02:28.478
7, -187500.02, -187500.02, -186855.69, -186702.81, -187500.02, -187500.02, -187500.02, -187500.02, -187500.02, -187500.02, -186184.92, -187015.23, -187500.02, -187500.02, -181284.67, -181892.67, -0.002, 0.944, 0.262, 12:02:28.479
8, -187500.02, -187500.02, -186837.55, -186739.81, -187500.02, -187500.02, -187500.02, -187500.02, -187500.02, -187500.02, -186087.52, -187057.03, -187500.02, -187500.02, -181230.52, -181961.75, 0.000, 0.000, 0.000, 12:02:28.483
9, -187500.02, -187500.02, -186794.38, -186812.25, -187500.02, -187500.02, -187500.02, -187500.02, -187500.02, -187500.02, -186140.20, -187094.75, -187500.02, -187500.02, -181275.84, -181966.44, 0.000, 0.000, 0.000, 12:02:28.487
10, -187500.02, -187500.02, -186889.91, -186809.97, -187500.02, -187500.02, -187500.02, -187500.02, -187500.02, -187500.02, -186149.20, -187124.63, -187500.02, -187500.02, -181244.67, -181971.72, 0.000, 0.000, 0.000, 12:02:28.489
11, -187500.02, -187500.02, -186796.72, -186879.00, -187500.02, -187500.02, -187500.02, -187500.02, -187500.02, -187500.02, -186092.81, -187155.59, -187500.02, -187500.02, -181248.39, -182026.05, 0.000, 0.000, 0.000, 12:02:28.490
12, -187500.02, -187500.02, -186880.89, -186878.39, -187500.02, -187500.02, -187500.02, -187500.02, -187500.02, -187500.02, -186199.25, -187171.63, -187500.02, -187500.02, -181283.89, -181985.53, 0.000, 0.950, 0.264, 12:02:28.491
13, -187500.02, -187500.02, -186874.70, -186893.72, -187500.02, -187500.02, -187500.02, -187500.02, -187500.02, -187500.02, -186113.17, -187192.70, -187500.02, -187500.02, -181238.22, -182036.47, 0.000, 0.000, 0.000, 12:02:28.491
14, -187500.02, -187500.02, -186833.89, -186929.83, -187500.02, -187500.02, -187500.02, -187500.02, -187500.02, -187500.02, -186168.56, -187200.13, -187500.02, -187500.02, -181286.19, -182018.45, 0.000, 0.000, 0.000, 12:02:28.492
15, -187500.02, -187500.02, -186933.48, -186898.16, -187500.02, -187500.02, -187500.02, -187500.02, -187500.02, -187500.02, -186186.25, -187212.28, -187500.02, -187500.02, -181263.48, -182013.28, 0.000, 0.000, 0.000, 12:02:28.493
16, -187500.02, -187500.02, -186842.83, -186948.89, -187500.02, -187500.02, -187500.02, -187500.02, -187500.02, -187500.02, -186127.00, -187225.45, -187500.02, -187500.02, -181266.05, -182056.11, 0.000, 0.000, 0.000, 12:02:28.498
17, -187500.02, -187500.02, -186921.03, -186929.69, -187500.02, -187500.02, -187500.02, -187500.02, -187500.02, -187500.02, -186233.25, -187227.28, -187500.02, -187500.02, -181302.55, -182008.14, -0.006, 0.950, 0.262, 12:02:28.499
18, -187500.02, -187500.02, -186917.28, -186934.45, -187500.02, -187500.02, -187500.02, -187500.02, -187500.02, -187500.02, -186148.98, -187239.97, -187500.02, -187500.02, -181259.63, -182057.09, 0.000, 0.000, 0.000, 12:02:28.500
19, -187500.02, -187500.02, -186876.73, -186964.56, -187500.02, -187500.02, -187500.02, -187500.02, -187500.02, -187500.02, -186203.91, -187239.06, -187500.02, -187500.02, -181308.77, -182036.25, 0.000, 0.000, 0.000, 12:02:28.501
20, -187500.02, -187500.02, -186976.16, -186923.83, -187500.02, -187500.02, -187500.02, -187500.02, -187500.02, -187500.02, -186223.58, -187245.34, -187500.02, -187500.02, -181288.64, -182028.17, 0.000, 0.000, 0.000, 12:02:28.501
21, -187500.02, -187500.02, -186884.42, -186967.75, -187500.02, -187500.02, -187500.02, -187500.02, -187500.02, -187500.02, -186161.08, -187251.44, -187500.02, -187500.02, -181289.42, -182067.53, 0.000, 0.000, 0.000, 12:02:28.502
22, -187500.02, -187500.02, -186960.64, -186942.20, -187500.02, -187500.02, -187500.02, -187500.02, -187500.02, -187500.02, -186266.09, -187246.14, -187500.02, -187500.02, -181325.56, -182014.14, -0.004, 0.950, 0.256, 12:02:28.503
23, -187500.02, -187500.02, -186953.09, -186937.13, -187500.02, -187500.02, -187500.02, -187500.02, -187500.02, -187500.02, -186181.20, -187252.69, -187500.02, -187500.02, -181282.19, -182059.09, 0.000, 0.000, 0.000, 12:02:28.559
24, -187500.02, -187500.02, -186907.88, -186960.05, -187500.02, -187500.02, -187500.02, -187500.02, -187500.02, -187500.02, -186235.13, -187245.05, -187500.02, -187500.02, -181331.56, -182034.20, 0.000, 0.000, 0.000, 12:02:28.560
25, -187500.02, -187500.02, -187007.20, -186911.73, -187500.02, -187500.02, -187500.02, -187500.02, -187500.02, -187500.02, -186254.84, -187242.36, -187500.02, -187500.02, -181311.33, -182019.84, 0.000, 0.000, 0.000, 12:02:28.560
26, -187500.02, -187500.02, -186908.52, -186942.89, -187500.02, -187500.02, -187500.02, -187500.02, -187500.02, -187500.02, -186187.41, -187237.22, -187500.02, -187500.02, -181308.22, -182051.73, 0.000, 0.000, 0.000, 12:02:28.560
27, -187500.02, -187500.02, -186979.78, -186905.84, -187500.02, -187500.02, -187500.02, -187500.02, -187500.02, -187500.02, -186290.20, -187220.47, -187500.02, -187500.02, -181342.92, -181989.91, -0.004, 0.946, 0.258, 12:02:28.561
28, -187500.02, -187500.02, -186970.53, -186889.64, -187500.02, -187500.02, -187500.02, -187500.02, -187500.02, -187500.02, -186201.84, -187217.25, -187500.02, -187500.02, -181296.72, -182027.84, 0.000, 0.000, 0.000, 12:02:28.561
29, -187500.02, -187500.02, -186921.86, -186903.09, -187500.02, -187500.02, -187500.02, -187500.02, -187500.02, -187500.02, -186252.61, -187197.28, -187500.02, -187500.02, -181344.50, -181994.56, 0.000, 0.000, 0.000, 12:02:28.561
30, -187500.02, -187500.02, -187015.86, -186837.84, -187500.02, -187500.02, -187500.02, -187500.02, -187500.02, -187500.02, -186273.02, -187183.09, -187500.02, -187500.02, -181324.98, -181973.69, 0.000, 0.000, 0.000, 12:02:28.561
31, -187500.02, -187500.02, -186921.27, -186864.13, -187500.02, -187500.02, -187500.02, -187500.02, -187500.02, -187500.02, -186205.53, -187168.70, -187500.02, -187500.02, -181322.75, -182001.33, 0.000, 0.000, 0.000, 12:02:28.622
32, -187500.02, -187500.02, -186987.64, -186811.66, -187500.02, -187500.02, -187500.02, -187500.02, -187500.02, -187500.02, -186306.50, -187136.48, -187500.02, -187500.02, -181356.45, -181928.69, -0.002, 0.944, 0.258, 12:02:28.622
33, -187500.02, -187500.02, -186974.27, -186780.80, -187500.02, -187500.02, -187500.02, -187500.02, -187500.02, -187500.02, -186214.13, -187121.25, -187500.02, -187500.02, -181306.91, -181958.59, 0.000, 0.000, 0.000, 12:02:28.623
34, -187500.02, -187500.02, -186919.70, -186784.61, -187500.02, -187500.02, -187500.02, -187500.02, -187500.02, -187500.02, -186265.78, -187094.28, -187500.02, -187500.02, -181357.05, -181923.05, 0.000, 0.000, 0.000, 12:02:28.623
35, -187500.02, -187500.02, -186976.27, -186725.08, -187500.02, -187500.02, -187500.02, -187500.02, -187500.02, -187500.02, -186223.33, -187070.39, -187500.02, -187500.02, -181317.03, -181926.45, 0.000, 0.000, 0.000, 12:02:28.623
36, -187500.02, -187500.02, -186917.75, -186725.14, -187500.02, -187500.02, -187500.02, -187500.02, -187500.02, -187500.02, -186268.66, -187037.89, -187500.02, -187500.02, -181361.63, -181886.52, -0.002, 0.942, 0.250, 12:02:28.623
37, -187500.02, -187500.02, -187005.84, -186646.78, -187500.02, -187500.02, -187500.02, -187500.02, -187500.02, -187500.02, -186281.44, -187013.19, -187500.02, -187500.02, -181335.52, -181856.95, 0.000, 0.000, 0.000, 12:02:28.624
38, -187500.02, -187500.02, -186900.78, -186669.17, -187500.02, -187500.02, -187500.02, -187500.02, -187500.02, -187500.02, -186206.30, -186994.80, -187500.02, -187500.02, -181327.52, -181883.52, 0.000, 0.000, 0.000, 12:02:28.682
39, -187500.02, -187500.02, -186957.58, -186608.31, -187500.02, -187500.02, -187500.02, -187500.02, -187500.02, -187500.02, -186302.19, -186952.70, -187500.02, -187500.02, -181356.89, -181803.55, 0.000, 0.000, 0.000, 12:02:28.683
40, -187500.02, -187500.02, -186944.23, -186578.05, -187500.02, -187500.02, -187500.02, -187500.02, -187500.02, -187500.02, -186210.67, -186944.53, -187500.02, -187500.02, -181308.56, -181841.52, 0.000, 0.000, 0.000, 12:02:28.683
41, -187500.02, -187500.02, -186885.64, -186589.92, -187500.02, -187500.02, -187500.02, -187500.02, -187500.02, -187500.02, -186252.83, -186917.19, -187500.02, -187500.02, -181350.78, -181806.06, -0.002, 0.940, 0.250, 12:02:28.683
42, -187500.02, -187500.02, -186972.94, -186526.17, -187500.02, -187500.02, -187500.02, -187500.02, -187500.02, -187500.02, -186264.28, -186907.61, -187500.02, -187500.02, -181322.64, -181789.23, 0.000, 0.000, 0.000, 12:02:28.684
43, -187500.02, -187500.02, -186868.52, -186569.25, -187500.02, -187500.02, -187500.02, -187500.02, -187500.02, -187500.02, -186190.86, -186902.22, -187500.02, -187500.02, -181314.23, -181825.22, 0.000, 0.000, 0.000, 12:02:28.684
44, -187500.02, -187500.02, -186929.69, -186516.92, -187500.02, -187500.02, -187500.02, -187500.02, -187500.02, -187500.02, -186291.81, -186863.42, -187500.02, -187500.02, -181345.23, -181744.86, 0.000, 0.000, 0.000, 12:02:28.684
45, -187500.02, -187500.02, -186913.91, -186485.09, -187500.02, -187500.02, -187500.02, -187500.02, -187500.02, -187500.02, -186196.55, -186855.81, -187500.02, -187500.02, -181290.80, -181780.97, 0.000, 0.000, 0.000, 12:02:28.685
46, -187500.02, -187500.02, -186849.73, -186500.25, -187500.02, -187500.02, -187500.02, -187500.02, -187500.02, -187500.02, -186235.33, -186827.61, -187500.02, -187500.02, -181328.86, -181743.30, -0.002, 0.942, 0.260, 12:02:28.744
47, -187500.02, -187500.02, -186936.22, -186435.73, -187500.02, -187500.02, -187500.02, -187500.02, -187500.02, -187500.02, -186247.06, -186825.81, -187500.02, -187500.02, -181301.14, -181731.28, 0.000, 0.000, 0.000, 12:02:28.744
48, -187500.02, -187500.02, -186828.97, -186497.73, -187500.02, -187500.02, -187500.02, -187500.02, -187500.02, -187500.02, -186164.67, -186839.98, -187500.02, -187500.02, -181286.97, -181782.11, 0.000, 0.000, 0.000, 12:02:28.747
49, -187500.02, -187500.02, -186889.20, -186473.47, -187500.02, -187500.02, -187500.02, -187500.02, -187500.02, -187500.02, -186266.67, -186825.63, -187500.02, -187500.02, -181320.98, -181722.27, 0.000, 0.000, 0.000, 12:02:28.747
50, -187500.02, -187500.02, -186878.64, -186472.27, -187500.02, -187500.02, -187500.02, -187500.02, -187500.02, -187500.02, -186168.36, -186841.27, -187500.02, -187500.02, -181264.44, -181777.25, 0.000, 0.000, 0.000, 12:02:28.748
51, -187500.02, -187500.02, -186815.11, -186515.00, -187500.02, -187500.02, -187500.02, -187500.02, -187500.02, -187500.02, -186207.66, -186835.55, -187500.02, -187500.02, -181303.11, -181754.52, -0.004, 0.950, 0.262, 12:02:28.748
52, -187500.02, -187500.02, -186905.69, -186467.13, -187500.02, -187500.02, -187500.02, -187500.02, -187500.02, -187500.02, -186220.22, -186848.80, -187500.02, -187500.02, -181274.47, -181749.20, 0.000, 0.000, 0.000, 12:02:28.749
53, -187500.02, -187500.02, -186801.88, -186540.86, -187500.02, -187500.02, -187500.02, -187500.02, -187500.02, -187500.02, -186135.48, -186870.75, -187500.02, -187500.02, -181256.92, -181806.17, 0.000, 0.000, 0.000, 12:02:28.802
54, -187500.02, -187500.02, -186857.98, -186525.41, -187500.02, -187500.02, -187500.02, -187500.02, -187500.02, -187500.02, -186229.72, -186863.45, -187500.02, -187500.02, -181284.16, -181752.16, 0.000, 0.000, 0.000, 12:02:28.803
55, -187500.02, -187500.02, -186845.83, -186545.58, -187500.02, -187500.02, -187500.02, -187500.02, -187500.02, -187500.02, -186130.09, -186906.38, -187500.02, -187500.02, -181227.14, -181829.13, -0.004, 0.942, 0.260, 12:02:28.803
56, -187500.02, -187500.02, -186785.86, -186622.33, -187500.02, -187500.02, -187500.02, -187500.02, -187500.02, -187500.02, -186166.48, -186926.00, -187500.02, -187500.02, -181263.81, -181825.56, 0.000, 0.000, 0.000, 12:02:28.803
57, -187500.02, -187500.02, -186879.31, -186602.17, -187500.02, -187500.02, -187500.02, -187500.02, -187500.02, -187500.02, -186181.08, -186966.23, -187500.02, -187500.02, -181236.98, -181841.42, 0.000, 0.000, 0.000, 12:02:28.804
58, -187500.02, -187500.02, -186777.66, -186710.78, -187500.02, -187500.02, -187500.02, -187500.02, -187500.02, -187500.02, -186097.53, -187025.89, -187500.02, -187500.02, -181222.55, -181927.97, 0.000, 0.000, 0.000, 12:02:28.804
59, -187500.02, -187500.02, -186838.72, -186736.44, -187500.02, -187500.02, -187500.02, -187500.02, -187500.02, -187500.02, -186195.59, -187057.56, -187500.02, -187500.02, -181253.63, -181900.92, 0.000, 0.000, 0.000, 12:02:28.804
60, -187500.02, -187500.02, -186834.02, -186792.63, -187500.02, -187500.02, -187500.02, -187500.02, -187500.02, -187500.02, -186099.25, -187135.75, -187500.02, -187500.02, -181199.38, -182003.03, -0.004, 0.938, 0.256, 12:02:28.805
61, -187500.02, -187500.02, -186779.69, -186906.20, -187500.02, -187500.02, -187500.02, -187500.02, -187500.02, -187500.02, -186138.19, -187186.48, -187500.02, -187500.02, -181239.67, -182024.58, 0.000, 0.000, 0.000, 12:02:28.862
62, -187500.02, -187500.02, -186881.75, -186916.45, -187500.02, -187500.02, -187500.02, -187500.02, -187500.02, -187500.02, -186159.22, -187252.73, -187500.02, -187500.02, -181218.27, -182059.48, 0.000, 0.000, 0.000, 12:02:28.862
63, -187500.02, -187500.02, -186791.16, -187048.88, -187500.02, -187500.02, -187500.02, -187500.02, -187500.02, -187500.02, -186079.50, -187332.05, -187500.02, -187500.02, -181207.31, -182159.89, 0.000, 0.000, 0.000, 12:02:28.862
64, -187500.02, -187500.02, -186859.50, -187087.31, -187500.02, -187500.02, -187500.02, -187500.02, -187500.02, -187500.02, -186184.42, -187378.02, -187500.02, -187500.02, -181243.73, -182139.73, 0.000, 0.000, 0.000, 12:02:28.863
65, -187500.02, -187500.02, -186870.28, -187154.75, -187500.02, -187500.02, -187500.02, -187500.02, -187500.02, -187500.02, -186097.83, -187471.30, -187500.02, -187500.02, -181198.17, -182251.31, -0.002, 0.936, 0.262, 12:02:28.863
66, -187500.02, -187500.02, -186823.50, -187280.95, -187500.02, -187500.02, -187500.02, -187500.02, -187500.02, -187500.02, -186141.41, -187500.02, -187500.02, -187500.02, -181243.89, -182287.91, 0.000, 0.000, 0.000, 12:02:28.863
67, -187500.02, -187500.02, -186935.08, -187313.94, -187500.02, -187500.02, -187500.02, -187500.02, -187500.02, -187500.02, -186167.06, -187500.02, -187500.02, -187500.02, -181226.69, -182335.13, 0.000, 0.000, 0.000, 12:02:28.863
68, -187500.02, -187500.02, -186850.61, -187458.64, -187500.02, -187500.02, -187500.02, -187500.02, -187500.02, -187500.02, -186100.39, -187500.02, -187500.02, -187500.02, -181227.95, -182449.06, 0.000, 0.000, 0.000, 12:02:28.922
69, -187500.02, -187500.02, -186938.89, -187500.02, -187500.02, -187500.02, -187500.02, -187500.02, -187500.02, -187500.02, -186222.84, -187500.02, -187500.02, -187500.02, -181279.50, -182430.63, 0.000, 0.000, 0.000, 12:02:28.925
70, -187500.02, -187500.02, -186964.00, -187500.02, -187500.02, -187500.02, -187500.02, -187500.02, -187500.02, -187500.02, -186152.58, -187500.02, -187500.02, -187500.02, -181244.95, -182521.92, 0.002, 0.938, 0.264, 12:02:28.926
71, -187500.02, -187500.02, -186931.31, -187500.02, -187500.02, -187500.02, -187500.02, -187500.02, -187500.02, -187500.02, -186213.72, -187500.02, -187500.02, -187500.02, -181303.44, -182527.78, 0.000, 0.000, 0.000, 12:02:28.927
72, -187500.02, -187500.02, -187054.75, -187500.02, -187500.02, -187500.02, -187500.02, -187500.02, -187500.02, -187500.02, -186256.97, -187500.02, -187500.02, -187500.02, -181297.31, -182532.08, 0.000, 0.000, 0.000, 12:02:28.927
73, -187500.02, -187500.02, -186983.25, -187500.02, -187500.02, -187500.02, -187500.02, -187500.02, -187500.02, -187500.02, -186197.05, -187500.02, -187500.02, -187500.02, -181302.59, -182608.06, 0.000, 0.000, 0.000, 12:02:28.927
74, -187500.02, -187500.02, -187065.78, -187500.02, -187500.02, -187500.02, -187500.02, -187500.02, -187500.02, -187500.02, -186318.44, -187500.02, -187500.02, -187500.02, -181352.81, -182562.88, 0.000, 0.000, 0.000, 12:02:28.928
75, -187500.02, -187500.02, -187092.44, -187500.02, -187500.02, -187500.02, -187500.02, -187500.02, -187500.02, -187500.02, -186250.17, -187500.02, -187500.02, -187500.02, -181321.02, -182641.80, 0.000, 0.942, 0.262, 12:02:28.928
76, -187500.02, -187500.02, -187053.27, -187500.02, -187500.02, -187500.02, -187500.02, -187500.02, -187500.02, -187500.02, -186302.70, -187500.02, -187500.02, -187500.02, -181373.92, -182639.58, 0.000, 0.000, 0.000, 12:02:28.984
77, -187500.02, -187500.02, -187169.36, -187500.02, -187500.02, -187500.02, -187500.02, -187500.02, -187500.02, -187500.02, -186343.05, -187500.02, -187500.02, -187500.02, -181366.72, -182640.30, 0.000, 0.000, 0.000, 12:02:28.984
78, -187500.02, -187500.02, -187092.97, -187500.02, -187500.02, -187500.02, -187500.02, -187500.02, -187500.02, -187500.02, -186274.73, -187500.02, -187500.02, -187500.02, -181365.72, -182711.16, 0.000, 0.000, 0.000, 12:02:28.984
79, -187500.02, -187500.02, -187163.36, -187500.02, -187500.02, -187500.02, -187500.02, -187500.02, -187500.02, -187500.02, -186386.41, -187500.02, -187500.02, -187500.02, -181408.55, -182659.80, 0.000, 0.000, 0.000, 12:02:28.985
80, -187500.02, -187500.02, -187180.52, -187500.02, -187500.02, -187500.02, -187500.02, -187500.02, -187500.02, -187500.02, -186311.97, -187500.02, -187500.02, -187500.02, -181371.30, -182730.63, -0.008, 0.944, 0.260, 12:02:28.992
81, -187500.02, -187500.02, -187137.02, -187500.02, -187500.02, -187500.02, -187500.02, -187500.02, -187500.02, -187500.02, -186362.95, -187500.02, -187500.02, -187500.02, -181424.95, -182731.34, 0.000, 0.000, 0.000, 12:02:28.994
82, -187500.02, -187500.02, -187249.63, -187500.02, -187500.02, -187500.02, -187500.02, -187500.02, -187500.02, -187500.02, -186400.41, -187500.02, -187500.02, -187500.02, -181414.58, -182725.50, 0.000, 0.000, 0.000, 12:02:28.995
83, -187500.02, -187500.02, -187171.02, -187500.02, -187500.02, -187500.02, -187500.02, -187500.02, -187500.02, -187500.02, -186334.97, -187500.02, -187500.02, -187500.02, -181417.30, -182798.42, 0.000, 0.000, 0.000, 12:02:29.044
84, -187500.02, -187500.02, -187242.48, -187500.02, -187500.02, -187500.02, -187500.02, -187500.02, -187500.02, -187500.02, -186448.59, -187500.02, -187500.02, -187500.02, -181462.39, -182744.69, 0.000, 0.000, 0.000, 12:02:29.044
85, -187500.02, -187500.02, -187261.23, -187500.02, -187500.02, -187500.02, -187500.02, -187500.02, -187500.02, -187500.02, -186375.48, -187500.02, -187500.02, -187500.02, -181425.03, -182808.20, -0.006, 0.938, 0.260, 12:02:29.045
86, -187500.02, -187500.02, -187211.19, -187500.02, -187500.02, -187500.02, -187500.02, -187500.02, -187500.02, -187500.02, -186420.38, -187500.02, -187500.02, -187500.02, -181472.95, -182793.55, 0.000, 0.000, 0.000, 12:02:29.045
87, -187500.02, -187500.02, -187322.14, -187500.02, -187500.02, -187500.02, -187500.02, -187500.02, -187500.02, -187500.02, -186462.52, -187500.02, -187500.02, -187500.02, -181465.53, -182776.17, 0.000, 0.000, 0.000, 12:02:29.046
88, -187500.02, -187500.02, -187241.67, -187500.02, -187500.02, -187500.02, -187500.02, -187500.02, -187500.02, -187500.02, -186394.77, -187500.02, -187500.02, -187500.02, -181465.14, -182832.61, 0.000, 0.000, 0.000, 12:02:29.046
89, -187500.02, -187500.02, -187310.25, -187500.02, -187500.02, -187500.02, -187500.02, -187500.02, -187500.02, -187500.02, -186508.50, -187500.02, -187500.02, -187500.02, -181508.86, -182760.28, 0.000, 0.000, 0.000, 12:02:29.046
90, -187500.02, -187500.02, -187324.69, -187500.02, -187500.02, -187500.02, -187500.02, -187500.02, -187500.02, -187500.02, -186436.25, -187500.02, -187500.02, -187500.02, -181470.59, -182805.77, -0.006, 0.940, 0.252, 12:02:29.046
91, -187500.02, -187500.02, -187274.16, -187500.02, -187500.02, -187500.02, -187500.02, -187500.02, -187500.02, -187500.02, -186483.22, -187500.02, -187500.02, -187500.02, -181519.53, -182773.66, 0.000, 0.000, 0.000, 12:02:29.103
92, -187500.02, -187500.02, -187378.88, -187500.02, -187500.02, -187500.02, -187500.02, -187500.02, -187500.02, -187500.02, -186524.86, -187500.02, -187500.02, -187500.02, -181509.34, -182730.63, 0.000, 0.000, 0.000, 12:02:29.103
93, -187500.02, -187500.02, -187292.81, -187500.02, -187500.02, -187500.02, -187500.02, -187500.02, -187500.02, -187500.02, -186453.28, -187500.02, -187500.02, -187500.02, -181504.50, -182760.50, 0.000, 0.000, 0.000, 12:02:29.103
94, -187500.02, -187500.02, -187353.95, -187500.02, -187500.02, -187500.02, -187500.02, -187500.02, -187500.02, -187500.02, -186568.53, -187500.02, -187500.02, -187500.02, -181548.06, -182661.67, 0.000, 0.000, 0.000, 12:02:29.103
95, -187500.02, -187500.02, -187364.41, -187500.02, -187500.02, -187500.02, -187500.02, -187500.02, -187500.02, -187500.02, -186492.38, -187500.02, -187500.02, -187500.02, -181505.30, -182682.09, -0.004, 0.944, 0.252, 12:02:29.104
96, -187500.02, -187500.02, -187301.44, -187500.02, -187500.02, -187500.02, -187500.02, -187500.02, -187500.02, -187500.02, -186532.08, -187500.02, -187500.02, -187500.02, -181546.73, -182621.66, 0.000, 0.000, 0.000, 12:02:29.104
97, -187500.02, -187500.02, -187395.45, -187500.02, -187500.02, -187500.02, -187500.02, -187500.02, -187500.02, -187500.02, -186567.61, -187500.02, -187500.02, -187500.02, -181530.22, -182554.00, 0.000, 0.000, 0.000, 12:02:29.105
98, -187500.02, -187500.02, -187300.75, -187500.02, -187500.02, -187500.02, -187500.02, -187500.02, -187500.02, -187500.02, -186489.34, -187500.02, -187500.02, -187500.02, -181519.31, -182568.66, 0.000, 0.000, 0.000, 12:02:29.163
99, -187500.02, -187500.02, -187349.30, -187500.02, -187500.02, -187500.02, -187500.02, -187500.02, -187500.02, -187500.02, -186597.47, -187500.02, -187500.02, -187500.02, -181555.92, -182447.05, -0.004, 0.944, 0.250, 12:02:29.163
100, -187500.02, -187500.02, -187348.89, -187460.44, -187500.02, -187500.02, -187500.02, -187500.02, -187500.02, -187500.02, -186513.45, -187500.02, -187500.02, -187500.02, -181506.33, -182454.80, 0.000, 0.000, 0.000, 12:02:29.163
101, -187500.02, -187500.02, -187271.89, -187435.91, -187500.02, -187500.02, -187500.02, -187500.02, -187500.02, -187500.02, -186542.78, -187500.02, -187500.02, -187500.02, -181538.22, -182374.30, 0.000, 0.000, 0.000, 12:02:29.164
102, -187500.02, -187500.02, -187355.22, -187286.56, -187500.02, -187500.02, -187500.02, -187500.02, -187500.02, -187500.02, -186571.34, -187500.02, -187500.02, -187500.02, -181514.89, -182290.45, 0.000, 0.000, 0.000, 12:02:29.164
103, -187500.02, -187500.02, -187250.38, -187268.67, -187500.02, -187500.02, -187500.02, -187500.02, -187500.02, -187500.02, -186486.34, -187500.02, -187500.02, -187500.02, -181499.42, -182299.33, 0.000, 0.000, 0.000, 12:02:29.165
104, -187500.02, -187500.02, -187286.27, -187163.78, -187500.02, -187500.02, -187500.02, -187500.02, -187500.02, -187500.02, -186580.91, -187500.02, -187500.02, -187500.02, -181524.50, -182166.44, -0.008, 0.944, 0.260, 12:02:29.168
105, -187500.02, -187500.02, -187272.59, -187083.36, -187500.02, -187500.02, -187500.02, -187500.02, -187500.02, -187500.02, -186479.56, -187500.02, -187500.02, -187500.02, -181463.97, -182191.44, 0.000, 0.000, 0.000, 12:02:29.172
106, -187500.02, -187500.02, -187180.25, -187092.45, -187500.02, -187500.02, -187500.02, -187500.02, -187500.02, -187500.02, -186494.02, -187474.22, -187500.02, -187500.02, -181488.00, -182141.05, 0.000, 0.000, 0.000, 12:02:29.226
107, -187500.02, -187500.02, -187254.84, -186984.63, -187500.02, -187500.02, -187500.02, -187500.02, -187500.02, -187500.02, -186506.08, -187423.94, -187500.02, -187500.02, -181453.41, -182087.41, 0.000, 0.000, 0.000, 12:02:29.227
108, -187500.02, -187500.02, -187138.36, -187011.70, -187500.02, -187500.02, -187500.02, -187500.02, -187500.02, -187500.02, -186408.80, -187411.91, -187500.02, -187500.02, -181430.33, -182129.97, 0.000, 0.000, 0.000, 12:02:29.229
109, -187500.02, -187500.02, -187173.95, -186952.84, -187500.02, -187500.02, -187500.02, -187500.02, -187500.02, -187500.02, -186506.53, -187345.81, -187500.02, -187500.02, -181459.61, -182028.33, -0.004, 0.936, 0.262, 12:02:29.230
110, -187500.02, -187500.02, -187166.78, -186906.17, -187500.02, -187500.02, -187500.02, -187500.02, -187500.02, -187500.02, -186406.41, -187339.34, -187500.02, -187500.02, -181399.31, -182068.63, 0.000, 0.000, 0.000, 12:02:29.231
111, -187500.02, -187500.02, -187080.25, -186934.03, -187500.02, -187500.02, -187500.02, -187500.02, -187500.02, -187500.02, -186425.45, -187295.81, -187500.02, -187500.02, -181426.11, -182024.53, 0.000, 0.000, 0.000, 12:02:29.238
112, -187500.02, -187500.02, -187162.14, -186835.92, -187500.02, -187500.02, -187500.02, -187500.02, -187500.02, -187500.02, -186446.11, -187265.48, -187500.02, -187500.02, -181398.50, -181980.41, 0.000, 0.000, 0.000, 12:02:29.240
113, -187500.02, -187500.02, -187054.64, -186883.89, -187500.02, -187500.02, -187500.02, -187500.02, -187500.02, -187500.02, -186349.08, -187275.88, -187500.02, -187500.02, -181376.42, -182037.03, 0.000, 0.000, 0.000, 12:02:29.284
114, -187500.02, -187500.02, -187092.23, -186839.39, -187500.02, -187500.02, -187500.02, -187500.02, -187500.02, -187500.02, -186448.61, -187219.08, -187500.02, -187500.02, -181406.23, -181938.64, -0.004, 0.940, 0.262, 12:02:29.285
115, -187500.02, -187500.02, -187091.02, -186799.83, -187500.02, -187500.02, -187500.02, -187500.02, -187500.02, -187500.02, -186354.53, -187224.98, -187500.02, -187500.02, -181351.08, -181987.86, 0.000, 0.000, 0.000, 12:02:29.286
116, -187500.02, -187500.02, -187010.02, -186838.36, -187500.02, -187500.02, -187500.02, -187500.02, -187500.02, -187500.02, -186376.03, -187188.92, -187500.02, -187500.02, -181379.81, -181947.11, 0.000, 0.000, 0.000, 12:02:29.287
117, -187500.02, -187500.02, -187098.38, -186740.95, -187500.02, -187500.02, -187500.02, -187500.02, -187500.02, -187500.02, -186402.91, -187158.86, -187500.02, -187500.02, -181356.17, -181900.17, 0.000, 0.000, 0.000, 12:02:29.288
118, -187500.02, -187500.02, -186993.25, -186782.91, -187500.02, -187500.02, -187500.02, -187500.02, -187500.02, -187500.02, -186304.16, -187163.08, -187500.02, -187500.02, -181332.70, -181953.05, 0.000, 0.000, 0.000, 12:02:29.288
119, -187500.02, -187500.02, -187029.64, -186736.09, -187500.02, -187500.02, -187500.02, -187500.02, -187500.02, -187500.02, -186404.42, -187105.63, -187500.02, -187500.02, -181362.77, -181853.89, -0.002, 0.942, 0.264, 12:02:29.289
120, -187500.02, -187500.02, -187034.83, -186700.89, -187500.02, -187500.02, -187500.02, -187500.02, -187500.02, -187500.02, -186315.80, -187122.67, -187500.02, -187500.02, -181313.44, -181911.56, 0.000, 0.000, 0.000, 12:02:29.290
121, -187500.02, -187500.02, -186960.73, -186751.33, -187500.02, -187500.02, -187500.02, -187500.02, -187500.02, -187500.02, -186342.86, -187098.91, -187500.02, -187500.02, -181347.88, -181881.44, 0.000, 0.000, 0.000, 12:02:29.343
122, -187500.02, -187500.02, -187054.41, -186663.75, -187500.02, -187500.02, -187500.02, -187500.02, -187500.02, -187500.02, -186373.13, -187073.59, -187500.02, -187500.02, -181326.86, -181839.09, 0.000, 0.000, 0.000, 12:02:29.344
123, -187500.02, -187500.02, -186954.08, -186713.64, -187500.02, -187500.02, -187500.02, -187500.02, -187500.02, -187500.02, -186279.67, -187090.73, -187500.02, -187500.02, -181309.34, -181904.28, 0.000, 0.000, 0.000, 12:02:29.345
124, -187500.02, -187500.02, -186997.08, -186680.58, -187500.02, -187500.02, -187500.02, -187500.02, -187500.02, -187500.02, -186381.59, -187041.83, -187500.02, -187500.02, -181340.64, -181809.53, 0.000, 0.938, 0.258, 12:02:29.345
125, -187500.02, -187500.02, -187001.17, -186645.39, -187500.02, -187500.02, -187500.02, -187500.02, -187500.02, -187500.02, -186291.03, -187058.44, -187500.02, -187500.02, -181288.72, -181865.36, 0.000, 0.000, 0.000, 12:02:29.346
126, -187500.02, -187500.02, -186924.23, -186695.13, -187500.02, -187500.02, -187500.02, -187500.02, -187500.02, -187500.02, -186314.66, -187033.33, -187500.02, -187500.02, -181319.92, -181834.92, 0.000, 0.000, 0.000, 12:02:29.346
127, -187500.02, -187500.02, -187016.14, -186607.38, -187500.02, -187500.02, -187500.02, -187500.02, -187500.02, -187500.02, -186346.33, -187008.25, -187500.02, -187500.02, -181298.86, -181791.38, 0.000, 0.000, 0.000, 12:02:29.347
0, -187500.02, -187500.02, -186919.70, -186658.97, -187500.02, -187500.02, -187500.02, -187500.02, -187500.02, -187500.02, -186256.03, -187030.45, -187500.02, -187500.02, -181284.36, -181859.36, 0.000, 0.000, 0.000, 12:02:29.403
1, -187500.02, -187500.02, -186963.78, -186626.73, -187500.02, -187500.02, -187500.02, -187500.02, -187500.02, -187500.02, -186358.78, -186979.20, -187500.02, -187500.02, -181314.86, -181761.16, 0.000, 0.940, 0.258, 12:02:29.404
2, -187500.02, -187500.02, -186969.52, -186588.69, -187500.02, -187500.02, -187500.02, -187500.02, -187500.02, -187500.02, -186271.88, -186996.44, -187500.02, -187500.02, -181265.69, -181817.33, 0.000, 0.000, 0.000, 12:02:29.404
3, -187500.02, -187500.02, -186894.47, -186639.16, -187500.02, -187500.02, -187500.02, -187500.02, -187500.02, -187500.02, -186291.92, -186966.33, -187500.02, -187500.02, -181293.16, -181781.03, 0.000, 0.000, 0.000, 12:02:29.405
4, -187500.02, -187500.02, -186981.23, -186543.25, -187500.02, -187500.02, -187500.02, -187500.02, -187500.02, -187500.02, -186327.06, -186938.14, -187500.02, -187500.02, -181273.67, -181734.30, 0.000, 0.000, 0.000, 12:02:29.405
5, -187500.02, -187500.02, -186890.02, -186594.14, -187500.02, -187500.02, -187500.02, -187500.02, -187500.02, -187500.02, -186237.41, -186958.45, -187500.02, -187500.02, -181259.36, -181800.91, 0.000, 0.000, 0.000, 12:02:29.406
6, -187500.02, -187500.02, -186932.53, -186559.31, -187500.02, -187500.02, -187500.02, -187500.02, -187500.02, -187500.02, -186340.91, -186902.86, -187500.02, -187500.02, -181289.42, -181698.28, -0.002, 0.938, 0.260, 12:02:29.406
7, -187500.02, -187500.02, -186940.91, -186517.56, -187500.02, -187500.02, -187500.02, -187500.02, -187500.02, -187500.02, -186257.06, -186918.80, -187500.02, -187500.02, -181242.25, -181752.36, 0.000, 0.000, 0.000, 12:02:29.415
8, -187500.02, -187500.02, -186868.80, -186568.64, -187500.02, -187500.02, -187500.02, -187500.02, -187500.02, -187500.02, -186283.75, -186893.08, -187500.02, -187500.02, -181275.97, -181721.13, 0.000, 0.000, 0.000, 12:02:29.463
9, -187500.02, -187500.02, -186962.91, -186475.05, -187500.02, -187500.02, -187500.02, -187500.02, -187500.02, -187500.02, -186321.50, -186861.31, -187500.02, -187500.02, -181257.70, -181669.81, 0.000, 0.000, 0.000, 12:02:29.464
10, -187500.02, -187500.02, -186869.39, -186520.45, -187500.02, -187500.02, -187500.02, -187500.02, -187500.02, -187500.02, -186227.75, -186876.72, -187500.02, -187500.02, -181239.88, -181732.66, -0.002, 0.938, 0.262, 12:02:29.465
11, -187500.02, -187500.02, -186906.78, -186480.78, -187500.02, -187500.02, -187500.02, -187500.02, -187500.02, -187500.02, -186331.69, -186816.20, -187500.02, -187500.02, -181269.94, -181626.42, 0.000, 0.000, 0.000, 12:02:29.465
12, -187500.02, -187500.02, -186917.39, -186436.75, -187500.02, -187500.02, -187500.02, -187500.02, -187500.02, -187500.02, -186247.52, -186829.75, -187500.02, -187500.02, -181222.63, -181679.27, 0.000, 0.000, 0.000, 12:02:29.468
13, -187500.02, -187500.02, -186841.00, -186485.41, -187500.02, -187500.02, -187500.02, -187500.02, -187500.02, -187500.02, -186269.06, -186798.39, -187500.02, -187500.02, -181252.61, -181644.42, 0.000, 0.000, 0.000, 12:02:29.469
14, -187500.02, -187500.02, -186931.23, -186385.92, -187500.02, -187500.02, -187500.02, -187500.02, -187500.02, -187500.02, -186305.00, -186759.84, -187500.02, -187500.02, -181232.00, -181587.08, 0.000, 0.000, 0.000, 12:02:29.469
15, -187500.02, -187500.02, -186837.58, -186429.91, -187500.02, -187500.02, -187500.02, -187500.02, -187500.02, -187500.02, -186211.48, -186776.69, -187500.02, -187500.02, -181215.80, -181652.75, -0.002, 0.940, 0.264, 12:02:29.530
16, -187500.02, -187500.02, -186874.38, -186389.36, -187500.02, -187500.02, -187500.02, -187500.02, -187500.02, -187500.02, -186312.80, -186707.78, -187500.02, -187500.02, -181242.17, -181537.73, 0.000, 0.000, 0.000, 12:02:29.531
17, -187500.02, -187500.02, -186877.88, -186333.70, -187500.02, -187500.02, -187500.02, -187500.02, -187500.02, -187500.02, -186224.64, -186715.20, -187500.02, -187500.02, -181191.03, -181584.27, 0.000, 0.000, 0.000, 12:02:29.532
18, -187500.02, -187500.02, -186805.17, -186387.09, -187500.02, -187500.02, -187500.02, -187500.02, -187500.02, -187500.02, -186251.61, -186687.70, -187500.02, -187500.02, -181226.02, -181553.63, 0.000, 0.000, 0.000, 12:02:29.533
19, -187500.02, -187500.02, -186898.89, -186286.55, -187500.02, -187500.02, -187500.02, -187500.02, -187500.02, -187500.02, -186289.69, -186644.72, -187500.02, -187500.02, -181206.06, -181490.73, 0.000, 0.000, 0.000, 12:02:29.533
20, -187500.02, -187500.02, -186803.45, -186325.59, -187500.02, -187500.02, -187500.02, -187500.02, -187500.02, -187500.02, -186193.56, -186659.08, -187500.02, -187500.02, -181187.34, -181553.77, -0.002, 0.942, 0.258, 12:02:29.534
21, -187500.02, -187500.02, -186839.70, -186282.97, -187500.02, -187500.02, -187500.02, -187500.02, -187500.02, -187500.02, -186295.97, -186584.20, -187500.02, -187500.02, -181213.91, -181432.20, 0.000, 0.000, 0.000, 12:02:29.535
22, -187500.02, -187500.02, -186846.97, -186224.52, -187500.02, -187500.02, -187500.02, -187500.02, -187500.02, -187500.02, -186209.11, -186592.42, -187500.02, -187500.02, -181164.13, -181479.42, 0.000, 0.000, 0.000, 12:02:29.536
23, -187500.02, -187500.02, -186767.80, -186273.16, -187500.02, -187500.02, -187500.02, -187500.02, -187500.02, -187500.02, -186226.97, -186553.27, -187500.02, -187500.02, -181190.13, -181435.27, 0.000, 0.000, 0.000, 12:02:29.584
24, -187500.02, -187500.02, -186855.44, -186158.69, -187500.02, -187500.02, -187500.02, -187500.02, -187500.02, -187500.02, -186264.88, -186501.05, -187500.02, -187500.02, -181168.50, -181361.75, 0.000, 0.000, 0.000, 12:02:29.584
25, -187500.02, -187500.02, -186761.38, -186197.27, -187500.02, -187500.02, -187500.02, -187500.02, -187500.02, -187500.02, -186170.09, -186520.23, -187500.02, -187500.02, -181152.72, -181429.50, -0.002, 0.944, 0.262, 12:02:29.588
26, -187500.02, -187500.02, -186801.66, -186158.02, -187500.02, -187500.02, -187500.02, -187500.02, -187500.02, -187500.02, -186277.80, -186442.44, -187500.02, -187500.02, -181183.14, -181302.38, 0.000, 0.000, 0.000, 12:02:29.591
27, -187500.02, -187500.02, -186812.88, -186095.52, -187500.02, -187500.02, -187500.02, -187500.02, -187500.02, -187500.02, -186193.38, -186452.61, -187500.02, -187500.02, -181136.03, -181350.63, 0.000, 0.000, 0.000, 12:02:29.593
28, -187500.02, -187500.02, -186734.58, -186146.13, -187500.02, -187500.02, -187500.02, -187500.02, -187500.02, -187500.02, -186213.88, -186413.63, -187500.02, -187500.02, -181164.39, -181304.67, 0.000, 0.000, 0.000, 12:02:29.594
29, -187500.02, -187500.02, -186825.50, -186025.88, -187500.02, -187500.02, -187500.02, -187500.02, -187500.02, -187500.02, -186252.63, -186356.34, -187500.02, -187500.02, -181142.83, -181222.94, 0.000, 0.000, 0.000, 12:02:29.594
30, -187500.02, -187500.02, -186734.61, -186067.22, -187500.02, -187500.02, -187500.02, -187500.02, -187500.02, -187500.02, -186156.92, -186381.42, -187500.02, -187500.02, -181127.48, -181296.48, -0.002, 0.944, 0.266, 12:02:29.643
31, -187500.02, -187500.02, -186771.39, -186022.47, -187500.02, -187500.02, -187500.02, -187500.02, -187500.02, -187500.02, -186259.72, -186292.59, -187500.02, -187500.02, -181151.63, -181153.02, 0.000, 0.000, 0.000, 12:02:29.647
32, -187500.02, -187500.02, -186780.80, -185950.09, -187500.02, -187500.02, -187500.02, -187500.02, -187500.02, -187500.02, -186177.94, -186308.63, -187500.02, -187500.02, -181107.81, -181206.86, 0.000, 0.000, 0.000, 12:02:29.648
33, -187500.02, -187500.02, -186708.78, -186011.81, -187500.02, -187500.02, -187500.02, -187500.02, -187500.02, -187500.02, -186200.89, -186275.97, -187500.02, -187500.02, -181139.27, -181165.11, 0.000, 0.000, 0.000, 12:02:29.649
34, -187500.02, -187500.02, -186804.11, -185887.52, -187500.02, -187500.02, -187500.02, -187500.02, -187500.02, -187500.02, -186242.50, -186218.61, -187500.02, -187500.02, -181119.23, -181079.36, 0.000, 0.000, 0.000, 12:02:29.654
35, -187500.02, -187500.02, -186711.17, -185929.22, -187500.02, -187500.02, -187500.02, -187500.02, -187500.02, -187500.02, -186143.63, -186251.41, -187500.02, -187500.02, -181102.86, -181160.53, -0.002, 0.942, 0.264, 12:02:29.656
36, -187500.02, -187500.02, -186748.11, -185888.77, -187500.02, -187500.02, -187500.02, -187500.02, -187500.02, -187500.02, -186250.27, -186168.17, -187500.02, -187500.02, -181130.73, -181018.91, 0.000, 0.000, 0.000, 12:02:29.656
37, -187500.02, -187500.02, -186763.14, -185819.67, -187500.02, -187500.02, -187500.02, -187500.02, -187500.02, -187500.02, -186165.02, -186192.33, -187500.02, -187500.02, -181084.81, -181079.55, 0.000, 0.000, 0.000, 12:02:29.656
38, -187500.02, -187500.02, -186686.50, -185891.50, -187500.02, -187500.02, -187500.02, -187500.02, -187500.02, -187500.02, -186187.64, -186171.86, -187500.02, -187500.02, -181118.22, -181048.05, 0.000, 0.000, 0.000, 12:02:29.704
39, -187500.02, -187500.02, -186787.28, -185772.73, -187500.02, -187500.02, -187500.02, -187500.02, -187500.02, -187500.02, -186234.73, -186126.50, -187500.02, -187500.02, -181103.97, -180971.27, 0.000, 0.000, 0.000, 12:02:29.704
40, -187500.02, -187500.02, -186697.41, -185830.00, -187500.02, -187500.02, -187500.02, -187500.02, -187500.02, -187500.02, -186135.89, -186178.80, -187500.02, -187500.02, -181091.02, -181074.67, 0.000, 0.938, 0.262, 12:02:29.704
41, -187500.02, -187500.02, -186739.59, -185809.33, -187500.02, -187500.02, -187500.02, -187500.02, -187500.02, -187500.02, -186245.75, -186110.83, -187500.02, -187500.02, -181124.22, -180945.77, 0.000, 0.000, 0.000, 12:02:29.704
42, -187500.02, -187500.02, -186756.34, -185750.41, -187500.02, -187500.02, -187500.02, -187500.02, -187500.02, -187500.02, -186157.61, -186149.70, -187500.02, -187500.02, -181078.05, -181023.89, 0.000, 0.000, 0.000, 12:02:29.705
43, -187500.02, -187500.02, -186679.58, -185845.77, -187500.02, -187500.02, -187500.02, -187500.02, -187500.02, -187500.02, -186178.78, -186149.59, -187500.02, -187500.02, -181113.72, -181015.16, 0.000, 0.000, 0.000, 12:02:29.705
44, -187500.02, -187500.02, -186782.81, -185742.78, -187500.02, -187500.02, -187500.02, -187500.02, -187500.02, -187500.02, -186223.06, -186118.64, -187500.02, -187500.02, -181098.63, -180951.64, 0.000, 0.000, 0.000, 12:02:29.705
45, -187500.02, -187500.02, -186690.03, -185819.05, -187500.02, -187500.02, -187500.02, -187500.02, -187500.02, -187500.02, -186119.50, -186193.17, -187500.02, -187500.02, -181085.31, -181081.27, -0.002, 0.934, 0.258, 12:02:29.764
46, -187500.02, -187500.02, -186732.38, -185823.13, -187500.02, -187500.02, -187500.02, -187500.02, -187500.02, -187500.02, -186230.58, -186149.03, -187500.02, -187500.02, -181122.81, -180974.48, 0.000, 0.000, 0.000, 12:02:29.765
47, -187500.02, -187500.02, -186757.83, -185791.27, -187500.02, -187500.02, -187500.02, -187500.02, -187500.02, -187500.02, -186143.84, -186218.28, -187500.02, -187500.02, -181081.89, -181085.41, 0.000, 0.000, 0.000, 12:02:29.765
48, -187500.02, -187500.02, -186678.39, -185920.17, -187500.02, -187500.02, -187500.02, -187500.02, -187500.02, -187500.02, -186160.66, -186250.73, -187500.02, -187500.02, -181119.95, -181110.92, 0.000, 0.000, 0.000, 12:02:29.766
49, -187500.02, -187500.02, -186788.16, -185854.70, -187500.02, -187500.02, -187500.02, -187500.02, -187500.02, -187500.02, -186208.33, -186261.75, -187500.02, -187500.02, -181113.97, -181090.59, 0.000, 0.942, 0.260, 12:02:29.766
50, -187500.02, -187500.02, -186701.36, -185982.20, -187500.02, -187500.02, -187500.02, -187500.02, -187500.02, -187500.02, -186096.92, -186381.33, -187500.02, -187500.02, -181101.73, -181272.33, 0.000, 0.000, 0.000, 12:02:29.767
51, -187500.02, -187500.02, -186742.05, -186039.06, -187500.02, -187500.02, -187500.02, -187500.02, -187500.02, -187500.02, -186204.67, -186391.95, -187500.02, -187500.02, -181145.89, -181223.56, 0.000, 0.000, 0.000, 12:02:29.767
52, -187500.02, -187500.02, -186772.56, -186071.77, -187500.02, -187500.02, -187500.02, -187500.02, -187500.02, -187500.02, -186109.42, -186525.06, -187500.02, -187500.02, -181108.41, -181406.86, 0.000, 0.000, 0.000, 12:02:29.768
53, -187500.02, -187500.02, -186691.00, -186280.69, -187500.02, -187500.02, -187500.02, -187500.02, -187500.02, -187500.02, -186117.69, -186632.45, -187500.02, -187500.02, -181152.17, -181515.52, 0.000, 0.000, 0.000, 12:02:29.823
54, -187500.02, -187500.02, -186808.31, -186299.34, -187500.02, -187500.02, -187500.02, -187500.02, -187500.02, -187500.02, -186161.66, -186716.52, -187500.02, -187500.02, -181152.86, -181572.17, 0.000, 0.944, 0.254, 12:02:29.823
55, -187500.02, -187500.02, -186719.30, -186498.84, -187500.02, -187500.02, -187500.02, -187500.02, -187500.02, -187500.02, -186047.36, -186900.86, -187500.02, -187500.02, -181145.42, -181825.28, 0.000, 0.000, 0.000, 12:02:29.824
56, -187500.02, -187500.02, -186774.28, -186629.42, -187500.02, -187500.02, -187500.02, -187500.02, -187500.02, -187500.02, -186167.47, -186970.69, -187500.02, -187500.02, -181203.70, -181834.77, 0.000, 0.000, 0.000, 12:02:29.825
57, -187500.02, -187500.02, -186814.80, -186704.66, -187500.02, -187500.02, -187500.02, -187500.02, -187500.02, -187500.02, -186078.89, -187136.47, -187500.02, -187500.02, -181169.59, -182049.50, 0.000, 0.000, 0.000, 12:02:29.825
58, -187500.02, -187500.02, -186738.97, -186944.28, -187500.02, -187500.02, -187500.02, -187500.02, -187500.02, -187500.02, -186094.61, -187268.09, -187500.02, -187500.02, -181217.92, -182182.41, 0.000, 0.000, 0.000, 12:02:29.827
59, -187500.02, -187500.02, -186861.88, -186980.67, -187500.02, -187500.02, -187500.02, -187500.02, -187500.02, -187500.02, -186146.42, -187368.61, -187500.02, -187500.02, -181222.17, -182254.64, -0.002, 0.942, 0.256, 12:02:29.827
60, -187500.02, -187500.02, -186777.94, -187199.36, -187500.02, -187500.02, -187500.02, -187500.02, -187500.02, -187500.02, -186034.03, -187500.02, -187500.02, -187500.02, -181214.77, -182525.75, 0.000, 0.000, 0.000, 12:02:29.893
61, -187500.02, -187500.02, -186829.69, -187338.81, -187500.02, -187500.02, -187500.02, -187500.02, -187500.02, -187500.02, -186160.13, -187500.02, -187500.02, -187500.02, -181274.16, -182534.86, 0.000, 0.000, 0.000, 12:02:29.894
62, -187500.02, -187500.02, -186880.20, -187410.14, -187500.02, -187500.02, -187500.02, -187500.02, -187500.02, -187500.02, -186085.52, -187500.02, -187500.02, -187500.02, -181244.34, -182737.27, 0.000, 0.000, 0.000, 12:02:29.894
63, -187500.02, -187500.02, -186807.45, -187500.02, -187500.02, -187500.02, -187500.02, -187500.02, -187500.02, -187500.02, -186112.38, -187500.02, -187500.02, -187500.02, -181292.91, -182837.38, 0.000, 0.000, 0.000, 12:02:29.895
64, -187500.02, -187500.02, -186938.39, -187500.02, -187500.02, -187500.02, -187500.02, -187500.02, -187500.02, -187500.02, -186183.41, -187500.02, -187500.02, -187500.02, -181300.00, -182853.41, 0.000, 0.940, 0.256, 12:02:29.895
65, -187500.02, -187500.02, -186859.30, -187500.02, -187500.02, -187500.02, -187500.02, -187500.02, -187500.02, -187500.02, -186079.55, -187500.02, -187500.02, -187500.02, -181286.61, -183057.55, 0.000, 0.000, 0.000, 12:02:29.896
66, -187500.02, -187500.02, -186909.91, -187500.02, -187500.02, -187500.02, -187500.02, -187500.02, -187500.02, -187500.02, -186216.13, -187500.02, -187500.02, -187500.02, -181345.94, -183008.44, 0.000, 0.000, 0.000, 12:02:29.904
67, -187500.02, -187500.02, -186961.09, -187500.02, -187500.02, -187500.02, -187500.02, -187500.02, -187500.02, -187500.02, -186142.64, -187500.02, -187500.02, -187500.02, -181308.67, -183155.03, 0.000, 0.000, 0.000, 12:02:29.905
68, -187500.02, -187500.02, -186877.00, -187500.02, -187500.02, -187500.02, -187500.02, -187500.02, -187500.02, -187500.02, -186168.09, -187500.02, -187500.02, -187500.02, -181350.25, -183206.27, 0.000, 0.000, 0.000, 12:02:29.944
69, -187500.02, -187500.02, -187007.19, -187500.02, -187500.02, -187500.02, -187500.02, -187500.02, -187500.02, -187500.02, -186243.02, -187500.02, -187500.02, -187500.02, -181352.66, -183169.33, 0.002, 0.942, 0.256, 12:02:29.945
70, -187500.02, -187500.02, -186924.23, -187500.02, -187500.02, -187500.02, -187500.02, -187500.02, -187500.02, -187500.02, -186145.56, -187500.02, -187500.02, -187500.02, -181337.30, -183324.75, 0.000, 0.000, 0.000, 12:02:29.947
71, -187500.02, -187500.02, -186974.42, -187500.02, -187500.02, -187500.02, -187500.02, -187500.02, -187500.02, -187500.02, -186287.48, -187500.02, -187500.02, -187500.02, -181391.47, -183207.23, 0.000, 0.000, 0.000, 12:02:29.949
72, -187500.02, -187500.02, -187023.64, -187500.02, -187500.02, -187500.02, -187500.02, -187500.02, -187500.02, -187500.02, -186220.27, -187500.02, -187500.02, -187500.02, -181346.41, -183273.80, 0.000, 0.000, 0.000, 12:02:29.951
73, -187500.02, -187500.02, -186940.27, -187500.02, -187500.02, -187500.02, -187500.02, -187500.02, -187500.02, -187500.02, -186257.22, -187500.02, -187500.02, -187500.02, -181385.97, -183241.22, 0.000, 0.000, 0.000, 12:02:29.952
74, -187500.02, -187500.02, -187071.41, -187500.02, -187500.02, -187500.02, -187500.02, -187500.02, -187500.02, -187500.02, -186343.33, -187500.02, -187500.02, -187500.02, -181382.61, -183097.30, 0.000, 0.944, 0.258, 12:02:29.954
75, -187500.02, -187500.02, -186990.38, -187500.02, -187500.02, -187500.02, -187500.02, -187500.02, -187500.02, -187500.02, -186253.59, -187500.02, -187500.02, -187500.02, -181361.52, -183155.13, 0.000, 0.000, 0.000, 12:02:30.003
76, -187500.02, -187500.02, -187033.13, -187500.02, -187500.02, -187500.02, -187500.02, -187500.02, -187500.02, -187500.02, -186389.77, -187500.02, -187500.02, -187500.02, -181403.58, -182949.58, 0.000, 0.000, 0.000, 12:02:30.004
77, -187500.02, -187500.02, -187072.63, -187500.02, -187500.02, -187500.02, -187500.02, -187500.02, -187500.02, -187500.02, -186313.92, -187500.02, -187500.02, -187500.02, -181350.27, -182968.58, 0.000, 0.000, 0.000, 12:02:30.004
78, -187500.02, -187500.02, -186974.55, -187500.02, -187500.02, -187500.02, -187500.02, -187500.02, -187500.02, -187500.02, -186342.55, -187500.02, -187500.02, -187500.02, -181378.28, -182874.48, 0.000, 0.000, 0.000, 12:02:30.005
79, -187500.02, -187500.02, -187101.94, -187500.02, -187500.02, -187500.02, -187500.02, -187500.02, -187500.02, -187500.02, -186431.77, -187500.02, -187500.02, -187500.02, -181372.78, -182667.09, -0.002, 0.938, 0.258, 12:02:30.007
80, -187500.02, -187500.02, -187009.94, -187500.02, -187500.02, -187500.02, -187500.02, -187500.02, -187500.02, -187500.02, -186319.23, -187500.02, -187500.02, -187500.02, -181333.38, -182681.20, 0.000, 0.000, 0.000, 12:02:30.009
81, -187500.02, -187500.02, -187038.05, -187409.84, -187500.02, -187500.02, -187500.02, -187500.02, -187500.02, -187500.02, -186453.53, -187500.02, -187500.02, -187500.02, -181380.36, -182455.27, 0.000, 0.000, 0.000, 12:02:30.011
82, -187500.02, -187500.02, -187080.86, -187256.42, -187500.02, -187500.02, -187500.02, -187500.02, -187500.02, -187500.02, -186371.50, -187500.02, -187500.02, -187500.02, -181329.75, -182462.84, 0.000, 0.000, 0.000, 12:02:30.014
83, -187500.02, -187500.02, -186969.59, -187291.45, -187500.02, -187500.02, -187500.02, -187500.02, -187500.02, -187500.02, -186378.98, -187496.42, -187500.02, -187500.02, -181357.52, -182377.16, 0.000, 0.000, 0.000, 12:02:30.065
84, -187500.02, -187500.02, -187093.14, -187068.69, -187500.02, -187500.02, -187500.02, -187500.02, -187500.02, -187500.02, -186454.25, -187406.23, -187500.02, -187500.02, -181346.22, -182191.70, -0.018, 0.954, 0.264, 12:02:30.066
85, -187500.02, -187500.02, -187002.83, -187050.30, -187500.02, -187500.02, -187500.02, -187500.02, -187500.02, -187500.02, -186330.13, -187384.86, -187500.02, -187500.02, -181314.70, -182258.39, 0.000, 0.000, 0.000, 12:02:30.066
86, -187500.02, -187500.02, -187043.14, -186953.84, -187500.02, -187500.02, -187500.02, -187500.02, -187500.02, -187500.02, -186470.41, -187218.72, -187500.02, -187500.02, -181356.66, -182012.17, 0.000, 0.000, 0.000, 12:02:30.067
87, -187500.02, -187500.02, -187091.77, -186777.89, -187500.02, -187500.02, -187500.02, -187500.02, -187500.02, -187500.02, -186381.64, -187168.25, -187500.02, -187500.02, -181297.31, -182004.59, 0.000, 0.000, 0.000, 12:02:30.067
88, -187500.02, -187500.02, -186979.44, -186813.17, -187500.02, -187500.02, -187500.02, -187500.02, -187500.02, -187500.02, -186394.72, -187094.56, -187500.02, -187500.02, -181323.98, -181912.91, -0.026, 0.944, 0.262, 12:02:30.068
89, -187500.02, -187500.02, -187103.08, -186588.17, -187500.02, -187500.02, -187500.02, -187500.02, -187500.02, -187500.02, -186473.27, -186977.36, -187500.02, -187500.02, -181316.16, -181710.38, 0.000, 0.000, 0.000, 12:02:30.068
90, -187500.02, -187500.02, -187002.84, -186576.28, -187500.02, -187500.02, -187500.02, -187500.02, -187500.02, -187500.02, -186349.34, -186986.78, -187500.02, -187500.02, -181280.58, -181775.53, 0.000, 0.000, 0.000, 12:02:30.130
91, -187500.02, -187500.02, -187033.58, -186491.77, -187500.02, -187500.02, -187500.02, -187500.02, -187500.02, -187500.02, -186493.14, -186841.95, -187500.02, -187500.02, -181324.88, -181516.70, 0.000, 0.000, 0.000, 12:02:30.135
92, -187500.02, -187500.02, -187085.23, -186313.81, -187500.02, -187500.02, -187500.02, -187500.02, -187500.02, -187500.02, -186413.70, -186808.25, -187500.02, -187500.02, -181274.45, -181517.39, 0.000, 0.000, 0.000, 12:02:30.137
93, -187500.02, -187500.02, -186975.06, -186364.70, -187500.02, -187500.02, -187500.02, -187500.02, -187500.02, -187500.02, -186424.77, -186737.16, -187500.02, -187500.02, -181295.58, -181427.25, -0.012, 0.942, 0.262, 12:02:30.140
94, -187500.02, -187500.02, -187102.27, -186141.64, -187500.02, -187500.02, -187500.02, -187500.02, -187500.02, -187500.02, -186509.55, -186617.95, -187500.02, -187500.02, -181296.38, -181231.27, 0.000, 0.000, 0.000, 12:02:30.140
95, -187500.02, -187500.02, -187011.09, -186143.22, -187500.02, -187500.02, -187500.02, -187500.02, -187500.02, -187500.02, -186387.61, -186637.28, -187500.02, -187500.02, -181261.55, -181319.16, 0.000, 0.000, 0.000, 12:02:30.141
96, -187500.02, -187500.02, -187045.25, -186079.77, -187500.02, -187500.02, -187500.02, -187500.02, -187500.02, -187500.02, -186531.14, -186506.50, -187500.02, -187500.02, -181310.66, -181072.97, 0.000, 0.000, 0.000, 12:02:30.142
97, -187500.02, -187500.02, -187105.48, -185916.59, -187500.02, -187500.02, -187500.02, -187500.02, -187500.02, -187500.02, -186451.39, -186488.75, -187500.02, -187500.02, -181258.22, -181091.53, 0.000, 0.000, 0.000, 12:02:30.144
98, -187500.02, -187500.02, -186999.05, -185992.69, -187500.02, -187500.02, -187500.02, -187500.02, -187500.02, -187500.02, -186465.05, -186441.44, -187500.02, -187500.02, -181286.55, -181027.91, -0.008, 0.950, 0.254, 12:02:30.187
99, -187500.02, -187500.02, -187133.94, -185786.06, -187500.02, -187500.02, -187500.02, -187500.02, -187500.02, -187500.02, -186546.47, -186326.23, -187500.02, -187500.02, -181281.16, -180829.97, 0.000, 0.000, 0.000, 12:02:30.188
100, -187500.02, -187500.02, -187036.58, -185796.25, -187500.02, -187500.02, -187500.02, -187500.02, -187500.02, -187500.02, -186420.31, -186353.75, -187500.02, -187500.02, -181247.20, -180935.84, 0.000, 0.000, 0.000, 12:02:30.189
101, -187500.02, -187500.02, -187065.83, -185743.64, -187500.02, -187500.02, -187500.02, -187500.02, -187500.02, -187500.02, -186560.95, -186220.25, -187500.02, -187500.02, -181293.09, -180688.44, 0.000, 0.000, 0.000, 12:02:30.190
102, -187500.02, -187500.02, -187119.55, -185583.67, -187500.02, -187500.02, -187500.02, -187500.02, -187500.02, -187500.02, -186477.84, -186209.81, -187500.02, -187500.02, -181239.20, -180714.09, 0.000, 0.000, 0.000, 12:02:30.196
103, -187500.02, -187500.02, -187006.73, -185670.73, -187500.02, -187500.02, -187500.02, -187500.02, -187500.02, -187500.02, -186488.67, -186169.02, -187500.02, -187500.02, -181264.92, -180659.91, -0.004, 0.942, 0.260, 12:02:30.197
104, -187500.02, -187500.02, -187141.20, -185476.94, -187500.02, -187500.02, -187500.02, -187500.02, -187500.02, -187500.02, -186575.38, -186063.22, -187500.02, -187500.02, -181264.28, -180469.03, 0.000, 0.000, 0.000, 12:02:30.197
105, -187500.02, -187500.02, -187050.44, -185502.08, -187500.02, -187500.02, -187500.02, -187500.02, -187500.02, -187500.02, -186450.17, -186100.50, -187500.02, -187500.02, -181230.13, -180587.41, 0.000, 0.000, 0.000, 12:02:30.244
106, -187500.02, -187500.02, -187076.97, -185461.77, -187500.02, -187500.02, -187500.02, -187500.02, -187500.02, -187500.02, -186589.20, -185968.83, -187500.02, -187500.02, -181274.70, -180342.41, 0.000, 0.000, 0.000, 12:02:30.251
107, -187500.02, -187500.02, -187138.09, -185312.47, -187500.02, -187500.02, -187500.02, -187500.02, -187500.02, -187500.02, -186507.33, -185959.88, -187500.02, -187500.02, -181219.58, -180371.78, 0.000, 0.000, 0.000, 12:02:30.251
108, -187500.02, -187500.02, -187025.33, -185407.31, -187500.02, -187500.02, -187500.02, -187500.02, -187500.02, -187500.02, -186517.81, -185925.38, -187500.02, -187500.02, -181246.53, -180326.16, -0.006, 0.934, 0.262, 12:02:30.258
109, -187500.02, -187500.02, -187162.95, -185223.41, -187500.02, -187500.02, -187500.02, -187500.02, -187500.02, -187500.02, -186603.44, -185816.66, -187500.02, -187500.02, -181242.98, -180130.11, 0.000, 0.000, 0.000, 12:02:30.264
110, -187500.02, -187500.02, -187070.92, -185250.09, -187500.02, -187500.02, -187500.02, -187500.02, -187500.02, -187500.02, -186475.02, -185857.20, -187500.02, -187500.02, -181206.53, -180253.00, 0.000, 0.000, 0.000, 12:02:30.265
111, -187500.02, -187500.02, -187098.95, -185219.95, -187500.02, -187500.02, -187500.02, -187500.02, -187500.02, -187500.02, -186614.95, -185730.77, -187500.02, -187500.02, -181251.61, -180006.77, 0.000, 0.000, 0.000, 12:02:30.266
112, -187500.02, -187500.02, -187163.27, -185075.41, -187500.02, -187500.02, -187500.02, -187500.02, -187500.02, -187500.02, -186539.50, -185730.70, -187500.02, -187500.02, -181201.83, -180037.89, 0.000, 0.000, 0.000, 12:02:30.268
113, -187500.02, -187500.02, -187051.73, -185177.33, -187500.02, -187500.02, -187500.02, -187500.02, -187500.02, -187500.02, -186545.06, -185695.67, -187500.02, -187500.02, -181226.47, -179989.50, -0.002, 0.936, 0.260, 12:02:30.304
114, -187500.02, -187500.02, -187189.44, -184995.70, -187500.02, -187500.02, -187500.02, -187500.02, -187500.02, -187500.02, -186637.33, -185589.50, -187500.02, -187500.02, -181226.31, -179786.19, 0.000, 0.000, 0.000, 12:02:30.305
115, -187500.02, -187500.02, -187100.91, -185025.50, -187500.02, -187500.02, -187500.02, -187500.02, -187500.02, -187500.02, -186507.36, -185630.97, -187500.02, -187500.02, -181191.48, -179911.53, 0.000, 0.000, 0.000, 12:02:30.305
116, -187500.02, -187500.02, -187129.42, -184999.14, -187500.02, -187500.02, -187500.02, -187500.02, -187500.02, -187500.02, -186651.77, -185507.17, -187500.02, -187500.02, -181239.41, -179661.44, 0.000, 0.000, 0.000, 12:02:30.305
117, -187500.02, -187500.02, -187194.98, -184855.30, -187500.02, -187500.02, -187500.02, -187500.02, -187500.02, -187500.02, -186571.59, -185503.45, -187500.02, -187500.02, -181186.92, -179689.22, 0.000, 0.000, 0.000, 12:02:30.305
118, -187500.02, -187500.02, -187078.58, -184957.17, -187500.02, -187500.02, -187500.02, -187500.02, -187500.02, -187500.02, -186574.28, -185471.11, -187500.02, -187500.02, -181210.08, -179642.44, 0.000, 0.936, 0.262, 12:02:30.306
119, -187500.02, -187500.02, -187212.81, -184775.36, -187500.02, -187500.02, -187500.02, -187500.02, -187500.02, -187500.02, -186664.83, -185362.70, -187500.02, -187500.02, -181210.13, -179432.17, 0.000, 0.000, 0.000, 12:02:30.306
120, -187500.02, -187500.02, -187127.23, -184807.34, -187500.02, -187500.02, -187500.02, -187500.02, -187500.02, -187500.02, -186535.88, -185408.92, -187500.02, -187500.02, -181178.31, -179563.52, 0.000, 0.000, 0.000, 12:02:30.388
121, -187500.02, -187500.02, -187155.13, -184780.23, -187500.02, -187500.02, -187500.02, -187500.02, -187500.02, -187500.02, -186683.58, -185284.27, -187500.02, -187500.02, -181229.38, -179302.89, 0.000, 0.000, 0.000, 12:02:30.389
122, -187500.02, -187500.02, -187225.94, -184628.98, -187500.02, -187500.02, -187500.02, -187500.02, -187500.02, -187500.02, -186605.45, -185272.06, -187500.02, -187500.02, -181177.59, -179318.14, 0.000, 0.000, 0.000, 12:02:30.389
123, -187500.02, -187500.02, -187107.55, -184719.03, -187500.02, -187500.02, -187500.02, -187500.02, -187500.02, -187500.02, -186609.52, -185231.72, -187500.02, -187500.02, -181202.56, -179258.23, -0.002, 0.940, 0.268, 12:02:30.390
124, -187500.02, -187500.02, -187250.39, -184527.50, -187500.02, -187500.02, -187500.02, -187500.02, -187500.02, -187500.02, -186708.14, -185113.41, -187500.02, -187500.02, -181206.45, -179026.30, 0.000, 0.000, 0.000, 12:02:30.396
125, -187500.02, -187500.02, -187162.22, -184541.78, -187500.02, -187500.02, -187500.02, -187500.02, -187500.02, -187500.02, -186572.73, -185144.77, -187500.02, -187500.02, -181169.64, -179141.56, 0.000, 0.000, 0.000, 12:02:30.396
126, -187500.02, -187500.02, -187187.05, -184502.73, -187500.02, -187500.02, -187500.02, -187500.02, -187500.02, -187500.02, -186720.91, -185006.03, -187500.02, -187500.02, -181219.44, -178858.16, 0.000, 0.000, 0.000, 12:02:30.397
127, -187500.02, -187500.02, -187260.67, -184340.00, -187500.02, -187500.02, -187500.02, -187500.02, -187500.02, -187500.02, -186643.05, -184987.44, -187500.02, -187500.02, -181168.95, -178862.88, 0.000, 0.000, 0.000, 12:02:30.397
0, -187500.02, -187500.02, -187139.13, -184425.05, -187500.02, -187500.02, -187500.02, -187500.02, -187500.02, -187500.02, -186643.98, -184940.98, -187500.02, -187500.02, -181192.05, -178792.47, -0.002, 0.944, 0.252, 12:02:30.426
1, -187500.02, -187500.02, -187287.61, -184229.02, -187500.02, -187500.02, -187500.02, -187500.02, -187500.02, -187500.02, -186748.14, -184817.94, -187500.02, -187500.02, -181200.69, -178542.31, 0.000, 0.000, 0.000, 12:02:30.429
2, -187500.02, -187500.02, -187201.47, -184235.16, -187500.02, -187500.02, -187500.02, -187500.02, -187500.02, -187500.02, -186611.48, -184844.72, -187500.02, -187500.02, -181164.08, -178648.88, 0.000, 0.000, 0.000, 12:02:30.429
3, -187500.02, -187500.02, -187229.36, -184189.70, -187500.02, -187500.02, -187500.02, -187500.02, -187500.02, -187500.02, -186765.00, -184693.84, -187500.02, -187500.02, -181217.98, -178335.91, 0.000, 0.000, 0.000, 12:02:30.444
4, -187500.02, -187500.02, -187311.86, -184008.36, -187500.02, -187500.02, -187500.02, -187500.02, -187500.02, -187500.02, -186694.33, -184662.81, -187500.02, -187500.02, -181172.73, -178318.36, 0.000, 0.944, 0.252, 12:02:30.445
5, -187500.02, -187500.02, -187197.84, -184085.05, -187500.02, -187500.02, -187500.02, -187500.02, -187500.02, -187500.02, -186703.13, -184601.39, -187500.02, -187500.02, -181202.14, -178222.33, 0.000, 0.000, 0.000, 12:02:30.445
6, -187500.02, -187500.02, -187357.77, -183862.14, -187500.02, -187500.02, -187500.02, -187500.02, -187500.02, -187500.02, -186817.11, -184447.97, -187500.02, -187500.02, -181213.70, -177919.92, 0.000, 0.000, 0.000, 12:02:30.445
7, -187500.02, -187500.02, -187280.81, -183843.94, -187500.02, -187500.02, -187500.02, -187500.02, -187500.02, -187500.02, -186685.47, -184453.45, -187500.02, -187500.02, -181180.11, -177996.84, 0.000, 0.000, 0.000, 12:02:30.446
8, -187500.02, -187500.02, -187316.67, -183774.00, -187500.02, -187500.02, -187500.02, -187500.02, -187500.02, -187500.02, -186852.64, -184269.39, -187500.02, -187500.02, -181240.59, -177628.69, 0.000, 0.000, 0.000, 12:02:30.484
9, -187500.02, -187500.02, -187416.23, -183564.83, -187500.02, -187500.02, -187500.02, -187500.02, -187500.02, -187500.02, -186789.08, -184211.83, -187500.02, -187500.02, -181198.17, -177579.69, -0.002, 0.942, 0.250, 12:02:30.485
10, -187500.02, -187500.02, -187301.67, -183637.91, -187500.02, -187500.02, -187500.02, -187500.02, -187500.02, -187500.02, -186794.89, -184120.59, -187500.02, -187500.02, -181222.13, -177459.41, 0.000, 0.000, 0.000, 12:02:30.485
11, -187500.02, -187500.02, -187466.47, -183401.88, -187500.02, -187500.02, -187500.02, -187500.02, -187500.02, -187500.02, -186916.66, -183927.16, -187500.02, -187500.02, -181233.73, -177113.50, 0.000, 0.000, 0.000, 12:02:30.485
12, -187500.02, -187500.02, -187398.31, -183375.56, -187500.02, -187500.02, -187500.02, -187500.02, -187500.02, -187500.02, -186787.39, -183901.25, -187500.02, -187500.02, -181201.31, -177173.31, 0.000, 0.000, 0.000, 12:02:30.486
13, -187500.02, -187500.02, -187438.25, -183298.22, -187500.02, -187500.02, -187500.02, -187500.02, -187500.02, -187500.02, -186965.42, -183670.95, -187500.02, -187500.02, -181263.97, -176749.20, 0.000, 0.000, 0.000, 12:02:30.486
14, -187500.02, -187500.02, -187500.02, -183068.52, -187500.02, -187500.02, -187500.02, -187500.02, -187500.02, -187500.02, -186909.91, -183569.23, -187500.02, -187500.02, -181223.47, -176642.59, -0.010, 0.950, 0.248, 12:02:30.486
15, -187500.02, -187500.02, -187448.05, -183113.42, -187500.02, -187500.02, -187500.02, -187500.02, -187500.02, -187500.02, -186931.88, -183419.17, -187500.02, -187500.02, -181255.66, -176436.66, 0.000, 0.000, 0.000, 12:02:30.544
16, -187500.02, -187500.02, -187500.02, -182812.77, -187500.02, -187500.02, -187500.02, -187500.02, -187500.02, -187500.02, -187077.08, -183135.48, -187500.02, -187500.02, -181276.08, -175952.38, 0.000, 0.000, 0.000, 12:02:30.545
17, -187500.02, -187500.02, -187500.02, -182716.05, -187500.02, -187500.02, -187500.02, -187500.02, -187500.02, -187500.02, -186963.55, -183039.30, -187500.02, -187500.02, -181250.63, -175917.59, 0.000, 0.000, 0.000, 12:02:30.545
18, -187500.02, -187500.02, -187500.02, -182577.78, -187500.02, -187500.02, -187500.02, -187500.02, -187500.02, -187500.02, -187169.77, -182716.83, -187500.02, -187500.02, -181324.88, -175362.59, 0.000, 0.000, 0.000, 12:02:30.545
19, -187500.02, -187500.02, -187500.02, -182275.34, -187500.02, -187500.02, -187500.02, -187500.02, -187500.02, -187500.02, -187131.34, -182555.88, -187500.02, -187500.02, -181292.63, -175184.77, -0.006, 0.940, 0.260, 12:02:30.545
20, -187500.02, -187500.02, -187500.02, -182298.16, -187500.02, -187500.02, -187500.02, -187500.02, -187500.02, -187500.02, -187164.58, -182380.86, -187500.02, -187500.02, -181332.23, -174952.63, 0.000, 0.000, 0.000, 12:02:30.545
21, -187500.02, -187500.02, -187500.02, -181979.84, -187500.02, -187500.02, -187500.02, -187500.02, -187500.02, -187500.02, -187324.98, -182082.80, -187500.02, -187500.02, -181361.27, -174447.31, 0.000, 0.000, 0.000, 12:02:30.546
22, -187500.02, -187500.02, -187500.02, -181899.97, -187500.02, -187500.02, -187500.02, -187500.02, -187500.02, -187500.02, -187201.91, -182004.81, -187500.02, -187500.02, -181331.63, -174450.63, 0.000, 0.000, 0.000, 12:02:30.546
23, -187500.02, -187500.02, -187500.02, -181773.83, -187500.02, -187500.02, -187500.02, -187500.02, -187500.02, -187500.02, -187416.28, -181652.67, -187500.02, -187500.02, -181409.67, -173871.13, 0.000, 0.000, 0.000, 12:02:30.604
24, -187500.02, -187500.02, -187500.02, -181453.20, -187500.02, -187500.02, -187500.02, -187500.02, -187500.02, -187500.02, -187380.67, -181441.27, -187500.02, -187500.02, -181378.77, -173695.63, -0.004, 0.926, 0.234, 12:02:30.605
25, -187500.02, -187500.02, -187500.02, -181479.95, -187500.02, -187500.02, -187500.02, -187500.02, -187500.02, -187500.02, -187341.00, -181174.38, -187500.02, -187500.02, -181349.63, -173440.23, 0.000, 0.000, 0.000, 12:02:30.605
26, -187500.02, -187500.02, -187500.02, -181165.27, -187500.02, -187500.02, -187500.02, -187500.02, -187500.02, -187500.02, -187500.02, -180932.27, -187500.02, -187500.02, -181442.53, -173066.69, 0.000, 0.000, 0.000, 12:02:30.605
27, -187500.02, -187500.02, -187500.02, -181199.48, -187500.02, -187500.02, -187500.02, -187500.02, -187500.02, -187500.02, -187403.67, -180954.59, -187500.02, -187500.02, -181403.33, -173279.59, 0.000, 0.000, 0.000, 12:02:30.605
28, -187500.02, -187500.02, -187500.02, -181217.56, -187500.02, -187500.02, -187500.02, -187500.02, -187500.02, -187500.02, -187500.02, -180788.77, -187500.02, -187500.02, -181458.47, -173004.42, 0.000, 0.000, 0.000, 12:02:30.606
29, -187500.02, -187500.02, -187500.02, -181095.84, -187500.02, -187500.02, -187500.02, -187500.02, -187500.02, -187500.02, -187431.47, -180882.45, -187500.02, -187500.02, -181391.02, -173222.75, -0.006, 0.946, 0.234, 12:02:30.606
30, -187500.02, -187500.02, -187500.02, -181370.66, -187500.02, -187500.02, -187500.02, -187500.02, -187500.02, -187500.02, -187377.81, -181013.05, -187500.02, -187500.02, -181395.17, -173450.33, 0.000, 0.000, 0.000, 12:02:30.665
31, -187500.02, -187500.02, -187500.02, -181290.92, -187500.02, -187500.02, -187500.02, -187500.02, -187500.02, -187500.02, -187453.38, -181021.00, -187500.02, -187500.02, -181393.55, -173403.38, 0.000, 0.000, 0.000, 12:02:30.666
32, -187500.02, -187500.02, -187500.02, -181481.94, -187500.02, -187500.02, -187500.02, -187500.02, -187500.02, -187500.02, -187220.63, -181315.80, -187500.02, -187500.02, -181322.94, -173944.16, 0.000, 0.000, 0.000, 12:02:30.667
33, -187500.02, -187500.02, -187500.02, -181662.20, -187500.02, -187500.02, -187500.02, -187500.02, -187500.02, -187500.02, -187325.84, -181356.48, -187500.02, -187500.02, -181360.39, -173920.02, 0.000, 0.000, 0.000, 12:02:30.668
34, -187500.02, -187500.02, -187500.02, -181653.84, -187500.02, -187500.02, -187500.02, -187500.02, -187500.02, -187500.02, -187182.28, -181576.02, -187500.02, -187500.02, -181290.92, -174293.91, -0.010, 0.950, 0.242, 12:02:30.668
35, -187500.02, -187500.02, -187500.02, -182002.11, -187500.02, -187500.02, -187500.02, -187500.02, -187500.02, -187500.02, -187101.63, -181773.39, -187500.02, -187500.02, -181288.53, -174623.59, 0.000, 0.000, 0.000, 12:02:30.669
36, -187500.02, -187500.02, -187500.02, -181996.86, -187500.02, -187500.02, -187500.02, -187500.02, -187500.02, -187500.02, -187168.42, -181833.73, -187500.02, -187500.02, -181286.52, -174661.17, 0.000, 0.000, 0.000, 12:02:30.670
37, -187500.02, -187500.02, -187500.02, -182235.36, -187500.02, -187500.02, -187500.02, -187500.02, -187500.02, -187500.02, -186937.09, -182137.92, -187500.02, -187500.02, -181218.77, -175227.97, 0.000, 0.000, 0.000, 12:02:30.670
38, -187500.02, -187500.02, -187500.02, -182448.50, -187500.02, -187500.02, -187500.02, -187500.02, -187500.02, -187500.02, -187035.86, -182201.11, -187500.02, -187500.02, -181256.08, -175253.58, 0.000, 0.000, 0.000, 12:02:30.725
39, -187500.02, -187500.02, -187500.02, -182478.56, -187500.02, -187500.02, -187500.02, -187500.02, -187500.02, -187500.02, -186895.27, -182436.03, -187500.02, -187500.02, -181191.42, -175652.94, -0.008, 0.940, 0.252, 12:02:30.725
40, -187500.02, -187500.02, -187452.05, -182848.66, -187500.02, -187500.02, -187500.02, -187500.02, -187500.02, -187500.02, -186812.45, -182663.02, -187500.02, -187500.02, -181193.83, -176017.98, 0.000, 0.000, 0.000, 12:02:30.726
41, -187500.02, -187500.02, -187500.02, -182881.61, -187500.02, -187500.02, -187500.02, -187500.02, -187500.02, -187500.02, -186876.20, -182760.38, -187500.02, -187500.02, -181195.77, -176095.63, 0.000, 0.000, 0.000, 12:02:30.726
42, -187500.02, -187500.02, -187404.64, -183132.50, -187500.02, -187500.02, -187500.02, -187500.02, -187500.02, -187500.02, -186649.94, -183067.28, -187500.02, -187500.02, -181131.89, -176646.81, 0.000, 0.000, 0.000, 12:02:30.726
43, -187500.02, -187500.02, -187352.06, -183350.80, -187500.02, -187500.02, -187500.02, -187500.02, -187500.02, -187500.02, -186759.95, -183140.80, -187500.02, -187500.02, -181181.41, -176676.83, -0.004, 0.934, 0.256, 12:02:30.726
44, -187500.02, -187500.02, -187412.39, -183376.00, -187500.02, -187500.02, -187500.02, -187500.02, -187500.02, -187500.02, -186644.25, -183342.28, -187500.02, -187500.02, -181128.27, -177011.55, 0.000, 0.000, 0.000, 12:02:30.727
45, -187500.02, -187500.02, -187222.63, -183700.69, -187500.02, -187500.02, -187500.02, -187500.02, -187500.02, -187500.02, -186584.08, -183522.02, -187500.02, -187500.02, -181142.16, -177297.14, 0.000, 0.000, 0.000, 12:02:30.784
46, -187500.02, -187500.02, -187340.72, -183692.58, -187500.02, -187500.02, -187500.02, -187500.02, -187500.02, -187500.02, -186672.73, -183570.31, -187500.02, -187500.02, -181152.19, -177297.08, 0.000, 0.000, 0.000, 12:02:30.784
47, -187500.02, -187500.02, -187219.39, -183888.48, -187500.02, -187500.02, -187500.02, -187500.02, -187500.02, -187500.02, -186476.39, -183820.14, -187500.02, -187500.02, -181100.38, -177748.64, 0.000, 0.000, 0.000, 12:02:30.785
48, -187500.02, -187500.02, -187186.88, -184057.52, -187500.02, -187500.02, -187500.02, -187500.02, -187500.02, -187500.02, -186601.88, -183852.53, -187500.02, -187500.02, -181151.81, -177712.20, -0.006, 0.942, 0.258, 12:02:30.785
49, -187500.02, -187500.02, -187259.05, -184042.14, -187500.02, -187500.02, -187500.02, -187500.02, -187500.02, -187500.02, -186504.52, -184014.78, -187500.02, -187500.02, -181101.34, -177972.94, 0.000, 0.000, 0.000, 12:02:30.785
50, -187500.02, -187500.02, -187087.25, -184323.88, -187500.02, -187500.02, -187500.02, -187500.02, -187500.02, -187500.02, -186458.20, -184165.06, -187500.02, -187500.02, -181117.91, -178204.84, 0.000, 0.000, 0.000, 12:02:30.785
51, -187500.02, -187500.02, -187217.33, -184296.25, -187500.02, -187500.02, -187500.02, -187500.02, -187500.02, -187500.02, -186559.56, -184196.11, -187500.02, -187500.02, -181132.16, -178169.22, 0.000, 0.000, 0.000, 12:02:30.785
52, -187500.02, -187500.02, -187111.31, -184458.80, -187500.02, -187500.02, -187500.02, -187500.02, -187500.02, -187500.02, -186376.48, -184411.50, -187500.02, -187500.02, -181083.81, -178563.63, 0.000, 0.000, 0.000, 12:02:30.785
53, -187500.02, -187500.02, -187087.00, -184600.09, -187500.02, -187500.02, -187500.02, -187500.02, -187500.02, -187500.02, -186509.16, -184431.19, -187500.02, -187500.02, -181140.23, -178505.97, -0.002, 0.942, 0.256, 12:02:30.844
54, -187500.02, -187500.02, -187169.41, -184569.56, -187500.02, -187500.02, -187500.02, -187500.02, -187500.02, -187500.02, -186419.48, -184562.08, -187500.02, -187500.02, -181089.63, -178719.06, 0.000, 0.000, 0.000, 12:02:30.844
55, -187500.02, -187500.02, -186996.66, -184809.98, -187500.02, -187500.02, -187500.02, -187500.02, -187500.02, -187500.02, -186373.44, -184681.38, -187500.02, -187500.02, -181102.92, -178907.88, 0.000, 0.000, 0.000, 12:02:30.844
56, -187500.02, -187500.02, -187126.36, -184763.22, -187500.02, -187500.02, -187500.02, -187500.02, -187500.02, -187500.02, -186479.25, -184690.02, -187500.02, -187500.02, -181116.53, -178842.05, 0.000, 0.000, 0.000, 12:02:30.845
57, -187500.02, -187500.02, -187026.67, -184893.36, -187500.02, -187500.02, -187500.02, -187500.02, -187500.02, -187500.02, -186304.64, -184870.95, -187500.02, -187500.02, -181068.97, -179183.36, 0.000, 0.000, 0.000, 12:02:30.845
58, -187500.02, -187500.02, -187003.11, -185004.78, -187500.02, -187500.02, -187500.02, -187500.02, -187500.02, -187500.02, -186432.09, -184865.14, -187500.02, -187500.02, -181117.94, -179094.16, 0.000, 0.934, 0.254, 12:02:30.845
59, -187500.02, -187500.02, -187083.88, -184949.06, -187500.02, -187500.02, -187500.02, -187500.02, -187500.02, -187500.02, -186354.83, -184972.19, -187500.02, -187500.02, -181071.98, -179270.28, 0.000, 0.000, 0.000, 12:02:30.845
60, -187500.02, -187500.02, -186927.30, -185164.55, -187500.02, -187500.02, -187500.02, -187500.02, -187500.02, -187500.02, -186315.80, -185072.95, -187500.02, -187500.02, -181089.83, -179431.06, 0.000, 0.000, 0.000, 12:02:30.904
61, -187500.02, -187500.02, -187058.77, -185102.83, -187500.02, -187500.02, -187500.02, -187500.02, -187500.02, -187500.02, -186425.05, -185069.38, -187500.02, -187500.02, -181103.95, -179347.39, 0.000, 0.000, 0.000, 12:02:30.905
62, -187500.02, -187500.02, -186965.27, -185207.78, -187500.02, -187500.02, -187500.02, -187500.02, -187500.02, -187500.02, -186255.72, -185226.13, -187500.02, -187500.02, -181058.05, -179653.22, 0.000, 0.000, 0.000, 12:02:30.905
63, -187500.02, -187500.02, -186945.69, -185301.03, -187500.02, -187500.02, -187500.02, -187500.02, -187500.02, -187500.02, -186387.44, -185211.98, -187500.02, -187500.02, -181111.42, -179556.78, 0.004, 0.944, 0.258, 12:02:30.905
64, -187500.02, -187500.02, -187033.02, -185235.34, -187500.02, -187500.02, -187500.02, -187500.02, -187500.02, -187500.02, -186316.48, -185295.17, -187500.02, -187500.02, -181067.20, -179697.42, 0.000, 0.000, 0.000, 12:02:30.905
65, -187500.02, -187500.02, -186880.05, -185415.09, -187500.02, -187500.02, -187500.02, -187500.02, -187500.02, -187500.02, -186276.91, -185359.97, -187500.02, -187500.02, -181081.63, -179813.91, 0.000, 0.000, 0.000, 12:02:30.906
66, -187500.02, -187500.02, -187012.28, -185325.70, -187500.02, -187500.02, -187500.02, -187500.02, -187500.02, -187500.02, -186391.38, -185321.75, -187500.02, -187500.02, -181094.41, -179684.95, 0.000, 0.000, 0.000, 12:02:30.906
67, -187500.02, -187500.02, -186925.33, -185387.02, -187500.02, -187500.02, -187500.02, -187500.02, -187500.02, -187500.02, -186223.80, -185421.95, -187500.02, -187500.02, -181045.13, -179918.55, 0.000, 0.000, 0.000, 12:02:30.906
68, -187500.02, -187500.02, -186900.30, -185424.91, -187500.02, -187500.02, -187500.02, -187500.02, -187500.02, -187500.02, -186348.36, -185356.30, -187500.02, -187500.02, -181088.69, -179761.73, -0.002, 0.938, 0.262, 12:02:30.970
69, -187500.02, -187500.02, -186984.73, -185308.63, -187500.02, -187500.02, -187500.02, -187500.02, -187500.02, -187500.02, -186273.08, -185381.05, -187500.02, -187500.02, -181036.86, -179833.39, 0.000, 0.000, 0.000, 12:02:30.972
70, -187500.02, -187500.02, -186825.64, -185431.77, -187500.02, -187500.02, -187500.02, -187500.02, -187500.02, -187500.02, -186230.25, -185415.97, -187500.02, -187500.02, -181043.84, -179918.28, 0.000, 0.000, 0.000, 12:02:30.973
71, -187500.02, -187500.02, -186962.86, -185348.97, -187500.02, -187500.02, -187500.02, -187500.02, -187500.02, -187500.02, -186375.13, -185419.36, -187500.02, -187500.02, -181072.28, -179813.14, 0.000, 0.000, 0.000, 12:02:30.975
72, -187500.02, -187500.02, -186906.94, -185425.58, -187500.02, -187500.02, -187500.02, -187500.02, -187500.02, -187500.02, -186231.33, -185560.52, -187500.02, -187500.02, -181040.56, -180050.53, 0.000, 0.000, 0.000, 12:02:30.977
73, -187500.02, -187500.02, -186908.50, -185481.36, -187500.02, -187500.02, -187500.02, -187500.02, -187500.02, -187500.02, -186380.75, -185527.52, -187500.02, -187500.02, -181095.22, -179926.23, 0.002, 0.968, 0.276, 12:02:30.980
74, -187500.02, -187500.02, -187014.53, -185404.16, -187500.02, -187500.02, -187500.02, -187500.02, -187500.02, -187500.02, -186325.52, -185549.00, -187500.02, -187500.02, -181055.81, -180017.91, 0.000, 0.000, 0.000, 12:02:30.983
75, -187500.02, -187500.02, -186878.69, -185556.08, -187500.02, -187500.02, -187500.02, -187500.02, -187500.02, -187500.02, -186290.05, -185568.20, -187500.02, -187500.02, -181069.33, -180100.30, 0.000, 0.000, 0.000, 12:02:31.027
76, -187500.02, -187500.02, -187009.97, -185472.78, -187500.02, -187500.02, -187500.02, -187500.02, -187500.02, -187500.02, -186412.77, -185547.53, -187500.02, -187500.02, -181085.69, -179966.77, 0.000, 0.000, 0.000, 12:02:31.029
77, -187500.02, -187500.02, -186944.33, -185546.81, -187500.02, -187500.02, -187500.02, -187500.02, -187500.02, -187500.02, -186268.34, -185673.70, -187500.02, -187500.02, -181051.14, -180184.63, 0.000, 0.000, 0.000, 12:02:31.031
78, -187500.02, -187500.02, -186930.88, -185607.27, -187500.02, -187500.02, -187500.02, -187500.02, -187500.02, -187500.02, -186393.88, -185609.14, -187500.02, -187500.02, -181097.73, -180043.11, 0.026, 0.910, 0.264, 12:02:31.033
79, -187500.02, -187500.02, -187024.64, -185502.81, -187500.02, -187500.02, -187500.02, -187500.02, -187500.02, -187500.02, -186337.80, -185616.81, -187500.02, -187500.02, -181057.75, -180094.33, 0.000, 0.000, 0.000, 12:02:31.034
80, -187500.02, -187500.02, -186889.66, -185622.25, -187500.02, -187500.02, -187500.02, -187500.02, -187500.02, -187500.02, -186298.05, -185608.83, -187500.02, -187500.02, -181068.59, -180131.19, 0.000, 0.000, 0.000, 12:02:31.037
81, -187500.02, -187500.02, -187016.33, -185492.47, -187500.02, -187500.02, -187500.02, -187500.02, -187500.02, -187500.02, -186412.36, -185504.56, -187500.02, -187500.02, -181083.44, -179942.98, 0.000, 0.000, 0.000, 12:02:31.038
82, -187500.02, -187500.02, -186956.16, -185510.44, -187500.02, -187500.02, -187500.02, -187500.02, -187500.02, -187500.02, -186272.64, -185553.77, -187500.02, -187500.02, -181048.56, -180093.92, 0.006, 0.930, 0.276, 12:02:31.040
83, -187500.02, -187500.02, -186948.38, -185522.88, -187500.02, -187500.02, -187500.02, -187500.02, -187500.02, -187500.02, -186400.84, -185433.38, -187500.02, -187500.02, -181102.77, -179883.92, 0.000, 0.000, 0.000, 12:02:31.088
84, -187500.02, -187500.02, -187051.58, -185375.38, -187500.02, -187500.02, -187500.02, -187500.02, -187500.02, -187500.02, -186346.86, -185394.45, -187500.02, -187500.02, -181059.78, -179880.31, 0.000, 0.000, 0.000, 12:02:31.088
85, -187500.02, -187500.02, -186919.91, -185482.56, -187500.02, -187500.02, -187500.02, -187500.02, -187500.02, -187500.02, -186304.28, -185353.89, -187500.02, -187500.02, -181073.52, -179879.03, 0.000, 0.000, 0.000, 12:02:31.089
86, -187500.02, -187500.02, -187059.06, -185334.41, -187500.02, -187500.02, -187500.02, -187500.02, -187500.02, -187500.02, -186423.48, -185199.08, -187500.02, -187500.02, -181084.47, -179640.92, 0.000, 0.000, 0.000, 12:02:31.089
87, -187500.02, -187500.02, -186993.92, -185335.78, -187500.02, -187500.02, -187500.02, -187500.02, -187500.02, -187500.02, -186269.58, -185212.16, -187500.02, -187500.02, -181043.33, -179767.78, 0.038, 0.998, 0.288, 12:02:31.089
88, -187500.02, -187500.02, -186984.70, -185342.27, -187500.02, -187500.02, -187500.02, -187500.02, -187500.02, -187500.02, -186415.02, -185071.77, -187500.02, -187500.02, -181098.08, -179521.45, 0.000, 0.000, 0.000, 12:02:31.089
89, -187500.02, -187500.02, -187086.64, -185168.30, -187500.02, -187500.02, -187500.02, -187500.02, -187500.02, -187500.02, -186356.36, -184992.22, -187500.02, -187500.02, -181058.58, -179460.52, 0.000, 0.000, 0.000, 12:02:31.090
90, -187500.02, -187500.02, -186942.86, -185227.88, -187500.02, -187500.02, -187500.02, -187500.02, -187500.02, -187500.02, -186318.41, -184888.23, -187500.02, -187500.02, -181065.33, -179400.97, 0.000, 0.000, 0.000, 12:02:31.160
91, -187500.02, -187500.02, -187093.30, -185034.11, -187500.02, -187500.02, -187500.02, -187500.02, -187500.02, -187500.02, -186456.97, -184697.48, -187500.02, -187500.02, -181084.53, -179096.23, 0.000, 0.000, 0.000, 12:02:31.160
92, -187500.02, -187500.02, -187055.48, -184989.48, -187500.02, -187500.02, -187500.02, -187500.02, -187500.02, -187500.02, -186318.38, -184664.77, -187500.02, -187500.02, -181047.06, -179166.81, 0.020, 0.960, 0.272, 12:02:31.160
93, -187500.02, -187500.02, -187058.28, -184951.94, -187500.02, -187500.02, -187500.02, -187500.02, -187500.02, -187500.02, -186461.67, -184446.13, -187500.02, -187500.02, -181093.14, -178857.13, 0.000, 0.000, 0.000, 12:02:31.161
94, -187500.02, -187500.02, -187188.05, -184768.52, -187500.02, -187500.02, -187500.02, -187500.02, -187500.02, -187500.02, -186429.61, -184356.64, -187500.02, -187500.02, -181059.11, -178792.84, 0.000, 0.000, 0.000, 12:02:31.161
95, -187500.02, -187500.02, -187060.88, -184857.45, -187500.02, -187500.02, -187500.02, -187500.02, -187500.02, -187500.02, -186398.98, -184289.20, -187500.02, -187500.02, -181074.50, -178751.23, 0.000, 0.000, 0.000, 12:02:31.161
96, -187500.02, -187500.02, -187211.44, -184676.09, -187500.02, -187500.02, -187500.02, -187500.02, -187500.02, -187500.02, -186540.03, -184132.70, -187500.02, -187500.02, -181092.52, -178462.80, 0.000, 0.000, 0.000, 12:02:31.161
97, -187500.02, -187500.02, -187154.56, -184668.50, -187500.02, -187500.02, -187500.02, -187500.02, -187500.02, -187500.02, -186390.39, -184168.95, -187500.02, -187500.02, -181052.88, -178602.88, 0.012, 0.948, 0.256, 12:02:31.162
98, -187500.02, -187500.02, -187139.97, -184690.61, -187500.02, -187500.02, -187500.02, -187500.02, -187500.02, -187500.02, -186533.19, -184040.13, -187500.02, -187500.02, -181105.47, -178377.36, 0.000, 0.000, 0.000, 12:02:31.204
99, -187500.02, -187500.02, -187251.64, -184542.86, -187500.02, -187500.02, -187500.02, -187500.02, -187500.02, -187500.02, -186489.77, -184039.42, -187500.02, -187500.02, -181068.22, -178396.08, 0.000, 0.000, 0.000, 12:02:31.205
100, -187500.02, -187500.02, -187103.55, -184683.05, -187500.02, -187500.02, -187500.02, -187500.02, -187500.02, -187500.02, -186449.17, -184059.30, -187500.02, -187500.02, -181081.05, -178463.14, 0.000, 0.000, 0.000, 12:02:31.205
101, -187500.02, -187500.02, -187241.25, -184565.83, -187500.02, -187500.02, -187500.02, -187500.02, -187500.02, -187500.02, -186580.89, -183979.30, -187500.02, -187500.02, -181097.63, -178271.19, 0.000, 0.000, 0.000, 12:02:31.205
102, -187500.02, -187500.02, -187167.91, -184602.72, -187500.02, -187500.02, -187500.02, -187500.02, -187500.02, -187500.02, -186414.59, -184088.52, -187500.02, -187500.02, -181047.77, -178492.28, 0.000, 0.962, 0.250, 12:02:31.205
103, -187500.02, -187500.02, -187138.14, -184663.20, -187500.02, -187500.02, -187500.02, -187500.02, -187500.02, -187500.02, -186544.69, -184032.20, -187500.02, -187500.02, -181096.11, -178341.03, 0.000, 0.000, 0.000, 12:02:31.206
104, -187500.02, -187500.02, -187248.36, -184549.63, -187500.02, -187500.02, -187500.02, -187500.02, -187500.02, -187500.02, -186490.13, -184076.67, -187500.02, -187500.02, -181052.44, -178405.72, 0.000, 0.000, 0.000, 12:02:31.206
105, -187500.02, -187500.02, -187090.83, -184698.50, -187500.02, -187500.02, -187500.02, -187500.02, -187500.02, -187500.02, -186435.41, -184123.34, -187500.02, -187500.02, -181058.67, -178498.23, 0.000, 0.000, 0.000, 12:02:31.272
106, -187500.02, -187500.02, -187222.56, -184591.72, -187500.02, -187500.02, -187500.02, -187500.02, -187500.02, -187500.02, -186567.25, -184057.42, -187500.02, -187500.02, -181079.02, -178322.55, 0.000, 0.000, 0.000, 12:02:31.273
107, -187500.02, -187500.02, -187153.14, -184623.66, -187500.02, -187500.02, -187500.02, -187500.02, -187500.02, -187500.02, -186404.09, -184156.23, -187500.02, -187500.02, -181032.16, -178531.47, 0.000, 0.960, 0.250, 12:02:31.273
108, -187500.02, -187500.02, -187122.03, -184670.98, -187500.02, -187500.02, -187500.02, -187500.02, -187500.02, -187500.02, -186541.66, -184087.67, -187500.02, -187500.02, -181087.30, -178365.02, 0.000, 0.000, 0.000, 12:02:31.274
109, -187500.02, -187500.02, -187238.23, -184545.27, -187500.02, -187500.02, -187500.02, -187500.02, -187500.02, -187500.02, -186500.09, -184102.06, -187500.02, -187500.02, -181048.09, -178398.16, 0.000, 0.000, 0.000, 12:02:31.275
110, -187500.02, -187500.02, -187088.05, -184673.64, -187500.02, -187500.02, -187500.02, -187500.02, -187500.02, -187500.02, -186454.42, -184126.13, -187500.02, -187500.02, -181058.63, -178463.88, 0.000, 0.000, 0.000, 12:02:31.275
111, -187500.02, -187500.02, -187229.20, -184557.05, -187500.02, -187500.02, -187500.02, -187500.02, -187500.02, -187500.02, -186597.59, -184044.89, -187500.02, -187500.02, -181085.38, -178269.50, 0.000, 0.000, 0.000, 12:02:31.276
112, -187500.02, -187500.02, -187167.67, -184574.80, -187500.02, -187500.02, -187500.02, -187500.02, -187500.02, -187500.02, -186435.89, -184121.91, -187500.02, -187500.02, -181036.72, -178458.48, 0.002, 0.950, 0.258, 12:02:31.276
113, -187500.02, -187500.02, -187140.83, -184621.38, -187500.02, -187500.02, -187500.02, -187500.02, -187500.02, -187500.02, -186569.02, -184044.66, -187500.02, -187500.02, -181090.67, -178291.50, 0.000, 0.000, 0.000, 12:02:31.330
114, -187500.02, -187500.02, -187255.78, -184489.84, -187500.02, -187500.02, -187500.02, -187500.02, -187500.02, -187500.02, -186521.88, -184050.53, -187500.02, -187500.02, -181049.53, -178314.81, 0.000, 0.000, 0.000, 12:02:31.330
115, -187500.02, -187500.02, -187155.78, -184568.92, -187500.02, -187500.02, -187500.02, -187500.02, -187500.02, -187500.02, -186569.45, -184006.23, -187500.02, -187500.02, -181082.94, -178237.98, 0.000, 0.000, 0.000, 12:02:31.330
116, -187500.02, -187500.02, -187264.34, -184449.42, -187500.02, -187500.02, -187500.02, -187500.02, -187500.02, -187500.02, -186532.94, -184002.48, -187500.02, -187500.02, -181046.75, -178246.89, -0.002, 0.944, 0.262, 12:02:31.331
117, -187500.02, -187500.02, -187122.34, -184561.80, -187500.02, -187500.02, -187500.02, -187500.02, -187500.02, -187500.02, -186485.66, -184000.14, -187500.02, -187500.02, -181053.34, -178282.25, 0.000, 0.000, 0.000, 12:02:31.334
118, -187500.02, -187500.02, -187260.88, -184418.14, -187500.02, -187500.02, -187500.02, -187500.02, -187500.02, -187500.02, -186632.34, -183876.38, -187500.02, -187500.02, -181073.00, -178029.17, 0.000, 0.000, 0.000, 12:02:31.334
119, -187500.02, -187500.02, -187212.75, -184389.69, -187500.02, -187500.02, -187500.02, -187500.02, -187500.02, -187500.02, -186494.03, -183907.48, -187500.02, -187500.02, -181027.63, -178146.33, 0.000, 0.000, 0.000, 12:02:31.334
120, -187500.02, -187500.02, -187199.39, -184382.69, -187500.02, -187500.02, -187500.02, -187500.02, -187500.02, -187500.02, -186649.55, -183778.55, -187500.02, -187500.02, -181081.64, -177891.52, 0.000, 0.000, 0.000, 12:02:31.393
121, -187500.02, -187500.02, -187342.80, -184188.22, -187500.02, -187500.02, -187500.02, -187500.02, -187500.02, -187500.02, -186648.80, -183725.83, -187500.02, -187500.02, -181053.28, -177806.48, -0.008, 0.948, 0.258, 12:02:31.394
122, -187500.02, -187500.02, -187224.67, -184228.97, -187500.02, -187500.02, -187500.02, -187500.02, -187500.02, -187500.02, -186631.92, -183677.63, -187500.02, -187500.02, -181063.58, -177737.72, 0.000, 0.000, 0.000, 12:02:31.398
123, -187500.02, -187500.02, -187389.63, -184008.42, -187500.02, -187500.02, -187500.02, -187500.02, -187500.02, -187500.02, -186812.88, -183500.86, -187500.02, -187500.02, -181088.89, -177365.22, 0.000, 0.000, 0.000, 12:02:31.399
124, -187500.02, -187500.02, -187368.36, -183879.69, -187500.02, -187500.02, -187500.02, -187500.02, -187500.02, -187500.02, -186717.09, -183477.91, -187500.02, -187500.02, -181054.52, -177365.09, 0.000, 0.000, 0.000, 12:02:31.399
125, -187500.02, -187500.02, -187389.86, -183813.52, -187500.02, -187500.02, -187500.02, -187500.02, -187500.02, -187500.02, -186915.98, -183351.08, -187500.02, -187500.02, -181127.95, -177077.23, 0.000, 0.000, 0.000, 12:02:31.399
126, -187500.02, -187500.02, -187500.02, -183653.73, -187500.02, -187500.02, -187500.02, -187500.02, -187500.02, -187500.02, -186937.31, -183303.94, -187500.02, -187500.02, -181107.69, -177013.63, -0.006, 0.964, 0.254, 12:02:31.399
127, -187500.02, -187500.02, -187472.02, -183742.38, -187500.02, -187500.02, -187500.02, -187500.02, -187500.02, -187500.02, -186922.63, -183167.91, -187500.02, -187500.02, -181116.98, -176927.78, 0.000, 0.000, 0.000, 12:02:31.400
0, -187500.02, -187500.02, -187500.02, -183498.61, -187500.02, -187500.02, -187500.02, -187500.02, -187500.02, -187500.02, -187107.72, -182850.14, -187500.02, -187500.02, -181151.27, -176495.50, 0.000, 0.000, 0.000, 12:02:31.451
1, -187500.02, -187500.02, -187500.02, -183343.47, -187500.02, -187500.02, -187500.02, -187500.02, -187500.02, -187500.02, -186986.58, -182717.95, -187500.02, -187500.02, -181113.66, -176480.42, 0.000, 0.000, 0.000, 12:02:31.452
2, -187500.02, -187500.02, -187500.02, -183281.08, -187500.02, -187500.02, -187500.02, -187500.02, -187500.02, -187500.02, -187130.09, -182551.16, -187500.02, -187500.02, -181158.77, -176197.95, 0.000, 0.000, 0.000, 12:02:31.452
3, -187500.02, -187500.02, -187500.02, -183105.94, -187500.02, -187500.02, -187500.02, -187500.02, -187500.02, -187500.02, -187113.47, -182552.77, -187500.02, -187500.02, -181122.23, -176161.02, -0.020, 1.000, 0.234, 12:02:31.453
4, -187500.02, -187500.02, -187500.02, -183207.50, -187500.02, -187500.02, -187500.02, -187500.02, -187500.02, -187500.02, -187079.72, -182583.66, -187500.02, -187500.02, -181133.05, -176210.66, 0.000, 0.000, 0.000, 12:02:31.453
5, -187500.02, -187500.02, -187500.02, -183058.48, -187500.02, -187500.02, -187500.02, -187500.02, -187500.02, -187500.02, -187221.25, -182478.66, -187500.02, -187500.02, -181151.89, -175996.31, 0.000, 0.000, 0.000, 12:02:31.454
6, -187500.02, -187500.02, -187500.02, -183030.16, -187500.02, -187500.02, -187500.02, -187500.02, -187500.02, -187500.02, -187072.47, -182589.47, -187500.02, -187500.02, -181107.42, -176197.75, 0.000, 0.000, 0.000, 12:02:31.458
7, -187500.02, -187500.02, -187500.02, -183092.75, -187500.02, -187500.02, -187500.02, -187500.02, -187500.02, -187500.02, -187163.63, -182599.28, -187500.02, -187500.02, -181145.48, -176126.64, 0.000, 0.000, 0.000, 12:02:31.511
8, -187500.02, -187500.02, -187500.02, -183008.17, -187500.02, -187500.02, -187500.02, -187500.02, -187500.02, -187500.02, -187105.81, -182704.83, -187500.02, -187500.02, -181098.03, -176232.66, -0.004, 0.968, 0.242, 12:02:31.511
